# Gaussian folded, width=10 cm^-1
# [cm^-1] [(D/Ã…)^2 amu^-1]
0.000      2.20820e+01      0.00000e+00 
1.000      2.14782e+01      2.73435e-02 
2.000      1.97640e+01      1.04972e-01 
3.000      1.72056e+01      2.20832e-01 
4.000      1.41704e+01      3.58283e-01 
5.000      1.10411e+01      4.99996e-01 
6.000      8.13879e+00      6.31429e-01 
7.000      5.67577e+00      7.42968e-01 
8.000      3.74462e+00      8.30422e-01 
9.000      2.33727e+00      8.94155e-01 
10.000      1.38015e+00      9.37499e-01 
11.000      7.71015e-01      9.65084e-01 
12.000      4.07489e-01      9.81547e-01 
13.000      2.03745e-01      9.90773e-01 
14.000      9.63776e-02      9.95635e-01 
15.000      4.31303e-02      9.98047e-01 
16.000      1.82603e-02      9.99173e-01 
17.000      7.31390e-03      9.99669e-01 
18.000      2.77146e-03      9.99874e-01 
19.000      9.93540e-04      9.99955e-01 
20.000      3.36961e-04      9.99985e-01 
21.000      1.08117e-04      9.99995e-01 
22.000      3.28188e-05      9.99999e-01 
23.000      9.42477e-06      1.00000e+00 
24.000      2.56057e-06      1.00000e+00 
25.000      6.58142e-07      1.00000e+00 
26.000      1.60037e-07      1.00000e+00 
27.000      3.68162e-08      1.00000e+00 
28.000      8.01263e-09      1.00000e+00 
29.000      1.64979e-09      1.00000e+00 
30.000      3.21367e-10      1.00000e+00 
31.000      5.92230e-11      1.00000e+00 
32.000      1.03252e-11      1.00000e+00 
33.000      1.70303e-12      1.00000e+00 
34.000      2.65745e-13      1.00000e+00 
35.000      3.92306e-14      1.00000e+00 
36.000      5.47903e-15      1.00000e+00 
37.000      7.23935e-16      1.00000e+00 
38.000      9.04926e-17      1.00000e+00 
39.000      1.07015e-17      1.00000e+00 
40.000      1.19727e-18      1.00000e+00 
41.000      1.26725e-19      1.00000e+00 
42.000      1.26895e-20      1.00000e+00 
43.000      1.20212e-21      1.00000e+00 
44.000      1.07738e-22      1.00000e+00 
45.000      9.13496e-24      1.00000e+00 
46.000      7.32762e-25      1.00000e+00 
47.000      5.56079e-26      1.00000e+00 
48.000      3.99235e-27      1.00000e+00 
49.000      2.71168e-28      1.00000e+00 
50.000      1.74247e-29      1.00000e+00 
51.000      1.05928e-30      1.00000e+00 
52.000      6.09221e-32      1.00000e+00 
53.000      3.31479e-33      1.00000e+00 
54.000      1.70630e-34      1.00000e+00 
55.000      8.30946e-36      1.00000e+00 
56.000      3.82832e-37      1.00000e+00 
57.000      1.66864e-38      1.00000e+00 
58.000      6.90116e-40      1.00000e+00 
59.000      7.18375e-41      1.00000e+00 
60.000      9.37105e-40      1.00000e+00 
61.000      1.84252e-38      1.00000e+00 
62.000      3.43092e-37      1.00000e+00 
63.000      6.04404e-36      1.00000e+00 
64.000      1.00731e-34      1.00000e+00 
65.000      1.58823e-33      1.00000e+00 
66.000      2.36910e-32      1.00000e+00 
67.000      3.34327e-31      1.00000e+00 
68.000      4.46351e-30      1.00000e+00 
69.000      5.63766e-29      1.00000e+00 
70.000      6.73658e-28      1.00000e+00 
71.000      7.61548e-27      1.00000e+00 
72.000      8.14465e-26      1.00000e+00 
73.000      8.24073e-25      1.00000e+00 
74.000      7.88817e-24      1.00000e+00 
75.000      7.14339e-23      1.00000e+00 
76.000      6.11998e-22      1.00000e+00 
77.000      4.96036e-21      1.00000e+00 
78.000      3.80360e-20      1.00000e+00 
79.000      2.75926e-19      1.00000e+00 
80.000      1.89369e-18      1.00000e+00 
81.000      1.22954e-17      1.00000e+00 
82.000      7.55257e-17      1.00000e+00 
83.000      4.38898e-16      1.00000e+00 
84.000      2.41296e-15      1.00000e+00 
85.000      1.25503e-14      1.00000e+00 
86.000      6.17556e-14      1.00000e+00 
87.000      2.87485e-13      1.00000e+00 
88.000      1.26611e-12      1.00000e+00 
89.000      5.27530e-12      1.00000e+00 
90.000      2.07941e-11      1.00000e+00 
91.000      7.75442e-11      1.00000e+00 
92.000      2.73575e-10      1.00000e+00 
93.000      9.13108e-10      1.00000e+00 
94.000      2.88326e-09      1.00000e+00 
95.000      8.61320e-09      1.00000e+00 
96.000      2.43424e-08      1.00000e+00 
97.000      6.50846e-08      1.00000e+00 
98.000      1.64631e-07      1.00000e+00 
99.000      3.93969e-07      1.00000e+00 
100.000      8.91928e-07      1.00000e+00 
101.000      1.91036e-06      1.00000e+00 
102.000      3.87096e-06      1.00000e+00 
103.000      7.42062e-06      1.00000e+00 
104.000      1.34579e-05      9.99999e-01 
105.000      2.30906e-05      9.99999e-01 
106.000      3.74808e-05      9.99998e-01 
107.000      5.75573e-05      9.99997e-01 
108.000      8.36198e-05      9.99996e-01 
109.000      1.14931e-04      9.99995e-01 
110.000      1.49445e-04      9.99993e-01 
111.000      1.83841e-04      9.99992e-01 
112.000      2.13955e-04      9.99990e-01 
113.000      2.35569e-04      9.99989e-01 
114.000      2.45377e-04      9.99989e-01 
115.000      2.41806e-04      9.99989e-01 
116.000      2.25434e-04      9.99990e-01 
117.000      1.98837e-04      9.99991e-01 
118.000      1.65931e-04      9.99992e-01 
119.000      1.31038e-04      9.99994e-01 
120.000      9.80089e-05      9.99996e-01 
121.000      6.96455e-05      9.99997e-01 
122.000      4.75794e-05      9.99998e-01 
123.000      3.25905e-05      9.99999e-01 
124.000      2.52713e-05      9.99999e-01 
125.000      2.69050e-05      9.99999e-01 
126.000      4.04275e-05      9.99998e-01 
127.000      7.13116e-05      9.99997e-01 
128.000      1.28120e-04      9.99994e-01 
129.000      2.22346e-04      9.99990e-01 
130.000      3.67075e-04      9.99983e-01 
131.000      5.74149e-04      9.99974e-01 
132.000      8.49914e-04      9.99962e-01 
133.000      1.19038e-03      9.99946e-01 
134.000      1.57735e-03      9.99929e-01 
135.000      1.97738e-03      9.99910e-01 
136.000      2.34516e-03      9.99894e-01 
137.000      2.63133e-03      9.99881e-01 
138.000      2.79315e-03      9.99874e-01 
139.000      2.80501e-03      9.99873e-01 
140.000      2.66496e-03      9.99879e-01 
141.000      2.39534e-03      9.99892e-01 
142.000      2.03687e-03      9.99908e-01 
143.000      1.63862e-03      9.99926e-01 
144.000      1.24713e-03      9.99944e-01 
145.000      8.97970e-04      9.99959e-01 
146.000      6.11691e-04      9.99972e-01 
147.000      3.94205e-04      9.99982e-01 
148.000      2.40342e-04      9.99989e-01 
149.000      1.38630e-04      9.99994e-01 
150.000      7.56488e-05      9.99997e-01 
151.000      3.90541e-05      9.99998e-01 
152.000      1.90744e-05      9.99999e-01 
153.000      8.81357e-06      1.00000e+00 
154.000      3.85277e-06      1.00000e+00 
155.000      1.59335e-06      1.00000e+00 
156.000      6.23406e-07      1.00000e+00 
157.000      2.30753e-07      1.00000e+00 
158.000      8.08061e-08      1.00000e+00 
159.000      2.67706e-08      1.00000e+00 
160.000      8.39059e-09      1.00000e+00 
161.000      2.48797e-09      1.00000e+00 
162.000      6.97937e-10      1.00000e+00 
163.000      1.85228e-10      1.00000e+00 
164.000      4.65067e-11      1.00000e+00 
165.000      1.10470e-11      1.00000e+00 
166.000      2.48250e-12      1.00000e+00 
167.000      5.27783e-13      1.00000e+00 
168.000      1.06155e-13      1.00000e+00 
169.000      2.01996e-14      1.00000e+00 
170.000      3.63634e-15      1.00000e+00 
171.000      6.19306e-16      1.00000e+00 
172.000      9.97849e-17      1.00000e+00 
173.000      1.52105e-17      1.00000e+00 
174.000      2.19351e-18      1.00000e+00 
175.000      2.99265e-19      1.00000e+00 
176.000      3.86270e-20      1.00000e+00 
177.000      4.71677e-21      1.00000e+00 
178.000      5.44901e-22      1.00000e+00 
179.000      5.95537e-23      1.00000e+00 
180.000      6.15771e-24      1.00000e+00 
181.000      6.02349e-25      1.00000e+00 
182.000      5.57438e-26      1.00000e+00 
183.000      4.88049e-27      1.00000e+00 
184.000      4.04249e-28      1.00000e+00 
185.000      3.16777e-29      1.00000e+00 
186.000      2.34843e-30      1.00000e+00 
187.000      1.64710e-31      1.00000e+00 
188.000      1.09290e-32      1.00000e+00 
189.000      6.86057e-34      1.00000e+00 
190.000      4.07436e-35      1.00000e+00 
191.000      2.28916e-36      1.00000e+00 
192.000      1.21678e-37      1.00000e+00 
193.000      6.11906e-39      1.00000e+00 
194.000      2.96823e-40      1.00000e+00 
195.000      1.51145e-40      1.00000e+00 
196.000      3.15091e-39      1.00000e+00 
197.000      6.80201e-38      1.00000e+00 
198.000      1.38947e-36      1.00000e+00 
199.000      2.68532e-35      1.00000e+00 
200.000      4.90997e-34      1.00000e+00 
201.000      8.49366e-33      1.00000e+00 
202.000      1.39010e-31      1.00000e+00 
203.000      2.15245e-30      1.00000e+00 
204.000      3.15324e-29      1.00000e+00 
205.000      4.37034e-28      1.00000e+00 
206.000      5.73072e-27      1.00000e+00 
207.000      7.10952e-26      1.00000e+00 
208.000      8.34463e-25      1.00000e+00 
209.000      9.26640e-24      1.00000e+00 
210.000      9.73535e-23      1.00000e+00 
211.000      9.67675e-22      1.00000e+00 
212.000      9.10007e-21      1.00000e+00 
213.000      8.09650e-20      1.00000e+00 
214.000      6.81534e-19      1.00000e+00 
215.000      5.42770e-18      1.00000e+00 
216.000      4.08962e-17      1.00000e+00 
217.000      2.91533e-16      1.00000e+00 
218.000      1.96622e-15      1.00000e+00 
219.000      1.25463e-14      1.00000e+00 
220.000      7.57419e-14      1.00000e+00 
221.000      4.32611e-13      1.00000e+00 
222.000      2.33775e-12      1.00000e+00 
223.000      1.19520e-11      1.00000e+00 
224.000      5.78124e-11      1.00000e+00 
225.000      2.64571e-10      1.00000e+00 
226.000      1.14552e-09      1.00000e+00 
227.000      4.69253e-09      1.00000e+00 
228.000      1.81866e-08      1.00000e+00 
229.000      6.66861e-08      1.00000e+00 
230.000      2.31346e-07      1.00000e+00 
231.000      7.59330e-07      1.00000e+00 
232.000      2.35799e-06      1.00000e+00 
233.000      6.92777e-06      1.00000e+00 
234.000      1.92570e-05      9.99999e-01 
235.000      5.06439e-05      9.99998e-01 
236.000      1.26011e-04      9.99994e-01 
237.000      2.96642e-04      9.99987e-01 
238.000      6.60693e-04      9.99970e-01 
239.000      1.39223e-03      9.99937e-01 
240.000      2.77566e-03      9.99874e-01 
241.000      5.23561e-03      9.99763e-01 
242.000      9.34355e-03      9.99577e-01 
243.000      1.57762e-02      9.99286e-01 
244.000      2.52023e-02      9.98859e-01 
245.000      3.80912e-02      9.98275e-01 
246.000      5.44702e-02      9.97533e-01 
247.000      7.36963e-02      9.96663e-01 
248.000      9.43386e-02      9.95728e-01 
249.000      1.14261e-01      9.94826e-01 
250.000      1.30942e-01      9.94070e-01 
251.000      1.41990e-01      9.93570e-01 
252.000      1.45700e-01      9.93402e-01 
253.000      1.41492e-01      9.93592e-01 
254.000      1.30063e-01      9.94110e-01 
255.000      1.13202e-01      9.94874e-01 
256.000      9.33333e-02      9.95773e-01 
257.000      7.29498e-02      9.96696e-01 
258.000      5.41177e-02      9.97549e-01 
259.000      3.81771e-02      9.98271e-01 
260.000      2.56856e-02      9.98837e-01 
261.000      1.65544e-02      9.99250e-01 
262.000      1.02858e-02      9.99534e-01 
263.000      6.21398e-03      9.99719e-01 
264.000      3.68783e-03      9.99833e-01 
265.000      2.17245e-03      9.99902e-01 
266.000      1.28016e-03      9.99942e-01 
267.000      7.56332e-04      9.99966e-01 
268.000      4.46210e-04      9.99980e-01 
269.000      2.60569e-04      9.99988e-01 
270.000      1.49025e-04      9.99993e-01 
271.000      8.26518e-05      9.99996e-01 
272.000      4.41016e-05      9.99998e-01 
273.000      2.25091e-05      9.99999e-01 
274.000      1.09458e-05      1.00000e+00 
275.000      5.05818e-06      1.00000e+00 
276.000      2.21755e-06      1.00000e+00 
277.000      9.21357e-07      1.00000e+00 
278.000      3.62552e-07      1.00000e+00 
279.000      1.35059e-07      1.00000e+00 
280.000      4.76183e-08      1.00000e+00 
281.000      1.58875e-08      1.00000e+00 
282.000      5.01564e-09      1.00000e+00 
283.000      1.49816e-09      1.00000e+00 
284.000      4.23387e-10      1.00000e+00 
285.000      1.13202e-10      1.00000e+00 
286.000      2.86351e-11      1.00000e+00 
287.000      6.85282e-12      1.00000e+00 
288.000      1.55154e-12      1.00000e+00 
289.000      3.32339e-13      1.00000e+00 
290.000      6.73473e-14      1.00000e+00 
291.000      1.29116e-14      1.00000e+00 
292.000      2.34186e-15      1.00000e+00 
293.000      4.01847e-16      1.00000e+00 
294.000      6.52350e-17      1.00000e+00 
295.000      1.00189e-17      1.00000e+00 
296.000      1.45573e-18      1.00000e+00 
297.000      2.00107e-19      1.00000e+00 
298.000      2.60232e-20      1.00000e+00 
299.000      3.20170e-21      1.00000e+00 
300.000      3.72666e-22      1.00000e+00 
301.000      4.10372e-23      1.00000e+00 
302.000      4.27520e-24      1.00000e+00 
303.000      4.21361e-25      1.00000e+00 
304.000      3.92891e-26      1.00000e+00 
305.000      3.46584e-27      1.00000e+00 
306.000      2.89244e-28      1.00000e+00 
307.000      2.28371e-29      1.00000e+00 
308.000      1.70583e-30      1.00000e+00 
309.000      1.20545e-31      1.00000e+00 
310.000      8.05905e-33      1.00000e+00 
311.000      5.09727e-34      1.00000e+00 
312.000      3.05007e-35      1.00000e+00 
313.000      1.72664e-36      1.00000e+00 
314.000      9.24725e-38      1.00000e+00 
315.000      4.68536e-39      1.00000e+00 
316.000      2.24591e-40      1.00000e+00 
317.000      1.01850e-41      1.00000e+00 
318.000      4.36967e-43      1.00000e+00 
319.000      1.77360e-44      1.00000e+00 
320.000      6.81054e-46      1.00000e+00 
321.000      2.47415e-47      1.00000e+00 
322.000      8.50337e-49      1.00000e+00 
323.000      2.76487e-50      1.00000e+00 
324.000      8.50504e-52      1.00000e+00 
325.000      2.47513e-53      1.00000e+00 
326.000      6.81456e-55      1.00000e+00 
327.000      1.77499e-56      1.00000e+00 
328.000      4.37396e-58      1.00000e+00 
329.000      1.01970e-59      1.00000e+00 
330.000      2.24899e-61      1.00000e+00 
331.000      4.69269e-63      1.00000e+00 
332.000      9.26350e-65      1.00000e+00 
333.000      1.73001e-66      1.00000e+00 
334.000      3.05660e-68      1.00000e+00 
335.000      5.10915e-70      1.00000e+00 
336.000      8.07936e-72      1.00000e+00 
337.000      1.20872e-73      1.00000e+00 
338.000      1.71077e-75      1.00000e+00 
339.000      2.29074e-77      1.00000e+00 
340.000      2.90188e-79      1.00000e+00 
341.000      3.47777e-81      1.00000e+00 
342.000      3.94314e-83      1.00000e+00 
343.000      4.22962e-85      1.00000e+00 
344.000      4.29219e-87      1.00000e+00 
345.000      4.12075e-89      1.00000e+00 
346.000      3.74276e-91      1.00000e+00 
347.000      3.21607e-93      1.00000e+00 
348.000      2.61443e-95      1.00000e+00 
349.000      2.01071e-97      1.00000e+00 
350.000      1.46298e-99      1.00000e+00 
351.000     1.00704e-101      1.00000e+00 
352.000     6.55802e-104      1.00000e+00 
353.000     4.04034e-106      1.00000e+00 
354.000     2.35495e-108      1.00000e+00 
355.000     1.29856e-110      1.00000e+00 
356.000     6.77429e-113      1.00000e+00 
357.000     3.34336e-115      1.00000e+00 
358.000     1.56106e-117      1.00000e+00 
359.000     6.89566e-120      1.00000e+00 
360.000     2.88171e-122      1.00000e+00 
361.000     1.13931e-124      1.00000e+00 
362.000     4.26151e-127      1.00000e+00 
363.000     4.49048e-129      1.00000e+00 
364.000     8.40975e-127      1.00000e+00 
365.000     2.24339e-124      1.00000e+00 
366.000     5.66189e-122      1.00000e+00 
367.000     1.35191e-119      1.00000e+00 
368.000     3.05400e-117      1.00000e+00 
369.000     6.52711e-115      1.00000e+00 
370.000     1.31979e-112      1.00000e+00 
371.000     2.52477e-110      1.00000e+00 
372.000     4.56953e-108      1.00000e+00 
373.000     7.82445e-106      1.00000e+00 
374.000     1.26756e-103      1.00000e+00 
375.000     1.94275e-101      1.00000e+00 
376.000      2.81708e-99      1.00000e+00 
377.000      3.86470e-97      1.00000e+00 
378.000      5.01609e-95      1.00000e+00 
379.000      6.15955e-93      1.00000e+00 
380.000      7.15594e-91      1.00000e+00 
381.000      7.86537e-89      1.00000e+00 
382.000      8.17911e-87      1.00000e+00 
383.000      8.04689e-85      1.00000e+00 
384.000      7.49005e-83      1.00000e+00 
385.000      6.59595e-81      1.00000e+00 
386.000      5.49547e-79      1.00000e+00 
387.000      4.33180e-77      1.00000e+00 
388.000      3.23049e-75      1.00000e+00 
389.000      2.27932e-73      1.00000e+00 
390.000      1.52152e-71      1.00000e+00 
391.000      9.60917e-70      1.00000e+00 
392.000      5.74159e-68      1.00000e+00 
393.000      3.24575e-66      1.00000e+00 
394.000      1.73594e-64      1.00000e+00 
395.000      8.78403e-63      1.00000e+00 
396.000      4.20523e-61      1.00000e+00 
397.000      1.90469e-59      1.00000e+00 
398.000      8.16200e-58      1.00000e+00 
399.000      3.30909e-56      1.00000e+00 
400.000      1.26928e-54      1.00000e+00 
401.000      4.60625e-53      1.00000e+00 
402.000      1.58153e-51      1.00000e+00 
403.000      5.13742e-50      1.00000e+00 
404.000      1.57890e-48      1.00000e+00 
405.000      4.59095e-47      1.00000e+00 
406.000      1.26297e-45      1.00000e+00 
407.000      3.28717e-44      1.00000e+00 
408.000      8.09455e-43      1.00000e+00 
409.000      1.88584e-41      1.00000e+00 
410.000      4.15680e-40      1.00000e+00 
411.000      8.66872e-39      1.00000e+00 
412.000      1.71038e-37      1.00000e+00 
413.000      3.19281e-36      1.00000e+00 
414.000      5.63893e-35      1.00000e+00 
415.000      9.42244e-34      1.00000e+00 
416.000      1.48961e-32      1.00000e+00 
417.000      2.22806e-31      1.00000e+00 
418.000      3.15300e-30      1.00000e+00 
419.000      4.22148e-29      1.00000e+00 
420.000      5.34751e-28      1.00000e+00 
421.000      6.40888e-27      1.00000e+00 
422.000      7.26705e-26      1.00000e+00 
423.000      7.79614e-25      1.00000e+00 
424.000      7.91310e-24      1.00000e+00 
425.000      7.59907e-23      1.00000e+00 
426.000      6.90430e-22      1.00000e+00 
427.000      5.93508e-21      1.00000e+00 
428.000      4.82703e-20      1.00000e+00 
429.000      3.71433e-19      1.00000e+00 
430.000      2.70414e-18      1.00000e+00 
431.000      1.86262e-17      1.00000e+00 
432.000      1.21386e-16      1.00000e+00 
433.000      7.48449e-16      1.00000e+00 
434.000      4.36621e-15      1.00000e+00 
435.000      2.40988e-14      1.00000e+00 
436.000      1.25845e-13      1.00000e+00 
437.000      6.21766e-13      1.00000e+00 
438.000      2.90648e-12      1.00000e+00 
439.000      1.28546e-11      1.00000e+00 
440.000      5.37899e-11      1.00000e+00 
441.000      2.12958e-10      1.00000e+00 
442.000      7.97698e-10      1.00000e+00 
443.000      2.82706e-09      1.00000e+00 
444.000      9.47946e-09      1.00000e+00 
445.000      3.00735e-08      1.00000e+00 
446.000      9.02689e-08      1.00000e+00 
447.000      2.56357e-07      1.00000e+00 
448.000      6.88819e-07      1.00000e+00 
449.000      1.75113e-06      1.00000e+00 
450.000      4.21198e-06      1.00000e+00 
451.000      9.58536e-06      1.00000e+00 
452.000      2.06388e-05      9.99999e-01 
453.000      4.20452e-05      9.99998e-01 
454.000      8.10407e-05      9.99996e-01 
455.000      1.47790e-04      9.99993e-01 
456.000      2.55002e-04      9.99988e-01 
457.000      4.16292e-04      9.99981e-01 
458.000      6.42997e-04      9.99971e-01 
459.000      9.39672e-04      9.99957e-01 
460.000      1.29927e-03      9.99941e-01 
461.000      1.69974e-03      9.99923e-01 
462.000      2.10388e-03      9.99905e-01 
463.000      2.46388e-03      9.99888e-01 
464.000      2.73007e-03      9.99876e-01 
465.000      2.86212e-03      9.99870e-01 
466.000      2.83897e-03      9.99871e-01 
467.000      2.66435e-03      9.99879e-01 
468.000      2.36582e-03      9.99893e-01 
469.000      1.98762e-03      9.99910e-01 
470.000      1.57995e-03      9.99928e-01 
471.000      1.18826e-03      9.99946e-01 
472.000      8.45557e-04      9.99962e-01 
473.000      5.69290e-04      9.99974e-01 
474.000      3.62647e-04      9.99984e-01 
475.000      2.18573e-04      9.99990e-01 
476.000      1.24644e-04      9.99994e-01 
477.000      6.72520e-05      9.99997e-01 
478.000      3.43322e-05      9.99998e-01 
479.000      1.65829e-05      9.99999e-01 
480.000      7.57844e-06      1.00000e+00 
481.000      3.27689e-06      1.00000e+00 
482.000      1.34062e-06      1.00000e+00 
483.000      5.18937e-07      1.00000e+00 
484.000      1.90057e-07      1.00000e+00 
485.000      6.58594e-08      1.00000e+00 
486.000      2.15930e-08      1.00000e+00 
487.000      6.69843e-09      1.00000e+00 
488.000      1.96606e-09      1.00000e+00 
489.000      5.45987e-10      1.00000e+00 
490.000      1.43460e-10      1.00000e+00 
491.000      3.56653e-11      1.00000e+00 
492.000      8.38925e-12      1.00000e+00 
493.000      1.86709e-12      1.00000e+00 
494.000      3.93161e-13      1.00000e+00 
495.000      7.83322e-14      1.00000e+00 
496.000      1.47664e-14      1.00000e+00 
497.000      2.63374e-15      1.00000e+00 
498.000      4.44463e-16      1.00000e+00 
499.000      7.09681e-17      1.00000e+00 
500.000      1.07215e-17      1.00000e+00 
501.000      1.53254e-18      1.00000e+00 
502.000      2.07268e-19      1.00000e+00 
503.000      2.65227e-20      1.00000e+00 
504.000      3.21121e-21      1.00000e+00 
505.000      3.67861e-22      1.00000e+00 
506.000      3.98716e-23      1.00000e+00 
507.000      4.08892e-24      1.00000e+00 
508.000      3.96751e-25      1.00000e+00 
509.000      3.64244e-26      1.00000e+00 
510.000      3.16396e-27      1.00000e+00 
511.000      2.60036e-28      1.00000e+00 
512.000      2.02210e-29      1.00000e+00 
513.000      1.48776e-30      1.00000e+00 
514.000      1.03569e-31      1.00000e+00 
515.000      6.82169e-33      1.00000e+00 
516.000      4.25126e-34      1.00000e+00 
517.000      2.50673e-35      1.00000e+00 
518.000      1.39849e-36      1.00000e+00 
519.000      7.38207e-38      1.00000e+00 
520.000      3.68689e-39      1.00000e+00 
521.000      1.74223e-40      1.00000e+00 
522.000      7.78958e-42      1.00000e+00 
523.000      3.29524e-43      1.00000e+00 
524.000      1.31893e-44      1.00000e+00 
525.000      4.99484e-46      1.00000e+00 
526.000      1.78971e-47      1.00000e+00 
527.000      6.06749e-49      1.00000e+00 
528.000      1.94624e-50      1.00000e+00 
529.000      5.90673e-52      1.00000e+00 
530.000      1.69613e-53      1.00000e+00 
531.000      4.60823e-55      1.00000e+00 
532.000      1.18460e-56      1.00000e+00 
533.000      2.88118e-58      1.00000e+00 
534.000      6.63025e-60      1.00000e+00 
535.000      1.44362e-61      1.00000e+00 
536.000      2.97395e-63      1.00000e+00 
537.000      5.79666e-65      1.00000e+00 
538.000      1.06901e-66      1.00000e+00 
539.000      1.86529e-68      1.00000e+00 
540.000      3.07943e-70      1.00000e+00 
541.000      4.81011e-72      1.00000e+00 
542.000      7.10885e-74      1.00000e+00 
543.000      9.94038e-76      1.00000e+00 
544.000      1.31512e-77      1.00000e+00 
545.000      1.64622e-79      1.00000e+00 
546.000      1.94970e-81      1.00000e+00 
547.000      2.18477e-83      1.00000e+00 
548.000      2.31634e-85      1.00000e+00 
549.000      2.32357e-87      1.00000e+00 
550.000      2.20529e-89      1.00000e+00 
551.000      1.98032e-91      1.00000e+00 
552.000      1.68252e-93      1.00000e+00 
553.000      1.35251e-95      1.00000e+00 
554.000      1.02868e-97      1.00000e+00 
555.000     7.40241e-100      1.00000e+00 
556.000     5.03991e-102      1.00000e+00 
557.000     3.24659e-104      1.00000e+00 
558.000     1.97873e-106      1.00000e+00 
559.000     1.14104e-108      1.00000e+00 
560.000     6.22542e-111      1.00000e+00 
561.000     3.21359e-113      1.00000e+00 
562.000     1.56952e-115      1.00000e+00 
563.000     7.25262e-118      1.00000e+00 
564.000     3.17086e-120      1.00000e+00 
565.000     1.31163e-122      1.00000e+00 
566.000     5.13331e-125      1.00000e+00 
567.000     1.90080e-127      1.00000e+00 
568.000     6.65927e-130      1.00000e+00 
569.000     2.20733e-132      1.00000e+00 
570.000     6.92246e-135      1.00000e+00 
571.000     2.05401e-137      1.00000e+00 
572.000     5.76629e-140      1.00000e+00 
573.000     1.53158e-142      1.00000e+00 
574.000     3.84885e-145      1.00000e+00 
575.000     9.15110e-148      1.00000e+00 
576.000     2.05856e-150      1.00000e+00 
577.000     4.38130e-153      1.00000e+00 
578.000     8.82246e-156      1.00000e+00 
579.000     1.68083e-158      1.00000e+00 
580.000     3.02975e-161      1.00000e+00 
581.000     5.16698e-164      1.00000e+00 
582.000     8.33706e-167      1.00000e+00 
583.000     1.27273e-169      1.00000e+00 
584.000     1.83825e-172      1.00000e+00 
585.000     2.51200e-175      1.00000e+00 
586.000     3.24773e-178      1.00000e+00 
587.000     3.97269e-181      1.00000e+00 
588.000     4.59764e-184      1.00000e+00 
589.000     5.03419e-187      1.00000e+00 
590.000     5.21516e-190      1.00000e+00 
591.000     5.11152e-193      1.00000e+00 
592.000     4.73998e-196      1.00000e+00 
593.000     4.15858e-199      1.00000e+00 
594.000     3.45189e-202      1.00000e+00 
595.000     2.71089e-205      1.00000e+00 
596.000     2.01422e-208      1.00000e+00 
597.000     1.41594e-211      1.00000e+00 
598.000     9.41728e-215      1.00000e+00 
599.000     5.92580e-218      1.00000e+00 
600.000     3.52784e-221      1.00000e+00 
601.000     1.98706e-224      1.00000e+00 
602.000     1.05890e-227      1.00000e+00 
603.000     5.33872e-231      1.00000e+00 
604.000     2.54659e-234      1.00000e+00 
605.000     1.14927e-237      1.00000e+00 
606.000     4.90707e-241      1.00000e+00 
607.000     1.98227e-244      1.00000e+00 
608.000     7.57601e-248      1.00000e+00 
609.000     2.73941e-251      1.00000e+00 
610.000     9.37155e-255      1.00000e+00 
611.000     3.03322e-258      1.00000e+00 
612.000     9.28824e-262      1.00000e+00 
613.000     2.69091e-265      1.00000e+00 
614.000     7.37570e-269      1.00000e+00 
615.000     1.91268e-272      1.00000e+00 
616.000     4.69266e-276      1.00000e+00 
617.000     1.08926e-279      1.00000e+00 
618.000     2.39210e-283      1.00000e+00 
619.000     4.97007e-287      1.00000e+00 
620.000     9.76971e-291      1.00000e+00 
621.000     1.81692e-294      1.00000e+00 
622.000     3.19686e-298      1.00000e+00 
623.000     5.32165e-302      1.00000e+00 
624.000     8.38114e-306      1.00000e+00 
625.000     1.24880e-309      1.00000e+00 
626.000     1.76043e-313      1.00000e+00 
627.000     2.34788e-317      1.00000e+00 
628.000     2.96439e-321      1.00000e+00 
629.000      0.00000e+00      1.00000e+00 
630.000      0.00000e+00      1.00000e+00 
631.000      0.00000e+00      1.00000e+00 
632.000      0.00000e+00      1.00000e+00 
633.000      0.00000e+00      1.00000e+00 
634.000      0.00000e+00      1.00000e+00 
635.000      0.00000e+00      1.00000e+00 
636.000      0.00000e+00      1.00000e+00 
637.000      0.00000e+00      1.00000e+00 
638.000      0.00000e+00      1.00000e+00 
639.000      0.00000e+00      1.00000e+00 
640.000      0.00000e+00      1.00000e+00 
641.000      0.00000e+00      1.00000e+00 
642.000      0.00000e+00      1.00000e+00 
643.000      0.00000e+00      1.00000e+00 
644.000      0.00000e+00      1.00000e+00 
645.000      0.00000e+00      1.00000e+00 
646.000      0.00000e+00      1.00000e+00 
647.000      0.00000e+00      1.00000e+00 
648.000      0.00000e+00      1.00000e+00 
649.000      0.00000e+00      1.00000e+00 
650.000      0.00000e+00      1.00000e+00 
651.000      0.00000e+00      1.00000e+00 
652.000      0.00000e+00      1.00000e+00 
653.000      0.00000e+00      1.00000e+00 
654.000      0.00000e+00      1.00000e+00 
655.000      0.00000e+00      1.00000e+00 
656.000      0.00000e+00      1.00000e+00 
657.000      0.00000e+00      1.00000e+00 
658.000      0.00000e+00      1.00000e+00 
659.000      0.00000e+00      1.00000e+00 
660.000      0.00000e+00      1.00000e+00 
661.000      0.00000e+00      1.00000e+00 
662.000      0.00000e+00      1.00000e+00 
663.000      0.00000e+00      1.00000e+00 
664.000      0.00000e+00      1.00000e+00 
665.000      0.00000e+00      1.00000e+00 
666.000      0.00000e+00      1.00000e+00 
667.000      0.00000e+00      1.00000e+00 
668.000      0.00000e+00      1.00000e+00 
669.000      0.00000e+00      1.00000e+00 
670.000      0.00000e+00      1.00000e+00 
671.000      0.00000e+00      1.00000e+00 
672.000      0.00000e+00      1.00000e+00 
673.000      0.00000e+00      1.00000e+00 
674.000      0.00000e+00      1.00000e+00 
675.000      0.00000e+00      1.00000e+00 
676.000      0.00000e+00      1.00000e+00 
677.000      0.00000e+00      1.00000e+00 
678.000      0.00000e+00      1.00000e+00 
679.000      0.00000e+00      1.00000e+00 
680.000      0.00000e+00      1.00000e+00 
681.000     2.56914e-322      1.00000e+00 
682.000     2.11818e-318      1.00000e+00 
683.000     1.68431e-314      1.00000e+00 
684.000     1.26709e-310      1.00000e+00 
685.000     9.01804e-307      1.00000e+00 
686.000     6.07215e-303      1.00000e+00 
687.000     3.86808e-299      1.00000e+00 
688.000     2.33116e-295      1.00000e+00 
689.000     1.32915e-291      1.00000e+00 
690.000     7.16963e-288      1.00000e+00 
691.000     3.65885e-284      1.00000e+00 
692.000     1.76651e-280      1.00000e+00 
693.000     8.06884e-277      1.00000e+00 
694.000     3.48683e-273      1.00000e+00 
695.000     1.42552e-269      1.00000e+00 
696.000     5.51367e-266      1.00000e+00 
697.000     2.01759e-262      1.00000e+00 
698.000     6.98471e-259      1.00000e+00 
699.000     2.28764e-255      1.00000e+00 
700.000     7.08847e-252      1.00000e+00 
701.000     2.07798e-248      1.00000e+00 
702.000     5.76309e-245      1.00000e+00 
703.000     1.51215e-241      1.00000e+00 
704.000     3.75368e-238      1.00000e+00 
705.000     8.81546e-235      1.00000e+00 
706.000     1.95866e-231      1.00000e+00 
707.000     4.11715e-228      1.00000e+00 
708.000     8.18766e-225      1.00000e+00 
709.000     1.54045e-221      1.00000e+00 
710.000     2.74197e-218      1.00000e+00 
711.000     4.61746e-215      1.00000e+00 
712.000     7.35645e-212      1.00000e+00 
713.000     1.10882e-208      1.00000e+00 
714.000     1.58116e-205      1.00000e+00 
715.000     2.13314e-202      1.00000e+00 
716.000     2.72263e-199      1.00000e+00 
717.000     3.28764e-196      1.00000e+00 
718.000     3.75584e-193      1.00000e+00 
719.000     4.05934e-190      1.00000e+00 
720.000     4.15079e-187      1.00000e+00 
721.000     4.01543e-184      1.00000e+00 
722.000     3.67503e-181      1.00000e+00 
723.000     3.18213e-178      1.00000e+00 
724.000     2.60676e-175      1.00000e+00 
725.000     2.02028e-172      1.00000e+00 
726.000     1.48132e-169      1.00000e+00 
727.000     1.02758e-166      1.00000e+00 
728.000     6.74387e-164      1.00000e+00 
729.000     4.18727e-161      1.00000e+00 
730.000     2.45970e-158      1.00000e+00 
731.000     1.36697e-155      1.00000e+00 
732.000     7.18731e-153      1.00000e+00 
733.000     3.57522e-150      1.00000e+00 
734.000     1.68255e-147      1.00000e+00 
735.000     7.49136e-145      1.00000e+00 
736.000     3.15561e-142      1.00000e+00 
737.000     1.25758e-139      1.00000e+00 
738.000     4.74152e-137      1.00000e+00 
739.000     1.69134e-134      1.00000e+00 
740.000     5.70784e-132      1.00000e+00 
741.000     1.82240e-129      1.00000e+00 
742.000     5.50487e-127      1.00000e+00 
743.000     1.57319e-124      1.00000e+00 
744.000     4.25348e-122      1.00000e+00 
745.000     1.08803e-119      1.00000e+00 
746.000     2.63310e-117      1.00000e+00 
747.000     6.02873e-115      1.00000e+00 
748.000     1.30592e-112      1.00000e+00 
749.000     2.67632e-110      1.00000e+00 
750.000     5.18912e-108      1.00000e+00 
751.000     9.51877e-106      1.00000e+00 
752.000     1.65197e-103      1.00000e+00 
753.000     2.71241e-101      1.00000e+00 
754.000      4.21349e-99      1.00000e+00 
755.000      6.19245e-97      1.00000e+00 
756.000      8.61027e-95      1.00000e+00 
757.000      1.13268e-92      1.00000e+00 
758.000      1.40971e-90      1.00000e+00 
759.000      1.65992e-88      1.00000e+00 
760.000      1.84919e-86      1.00000e+00 
761.000      1.94899e-84      1.00000e+00 
762.000      1.94345e-82      1.00000e+00 
763.000      1.83347e-80      1.00000e+00 
764.000      1.63648e-78      1.00000e+00 
765.000      1.38193e-76      1.00000e+00 
766.000      1.10407e-74      1.00000e+00 
767.000      8.34534e-73      1.00000e+00 
768.000      5.96801e-71      1.00000e+00 
769.000      4.03788e-69      1.00000e+00 
770.000      2.58474e-67      1.00000e+00 
771.000      1.56537e-65      1.00000e+00 
772.000      8.96929e-64      1.00000e+00 
773.000      4.86226e-62      1.00000e+00 
774.000      2.49378e-60      1.00000e+00 
775.000      1.21009e-58      1.00000e+00 
776.000      5.55546e-57      1.00000e+00 
777.000      2.41303e-55      1.00000e+00 
778.000      9.91623e-54      1.00000e+00 
779.000      3.85543e-52      1.00000e+00 
780.000      1.41821e-50      1.00000e+00 
781.000      4.93574e-49      1.00000e+00 
782.000      1.62520e-47      1.00000e+00 
783.000      5.06297e-46      1.00000e+00 
784.000      1.49227e-44      1.00000e+00 
785.000      4.16135e-43      1.00000e+00 
786.000      1.09791e-41      1.00000e+00 
787.000      2.74059e-40      1.00000e+00 
788.000      6.47244e-39      1.00000e+00 
789.000      1.44623e-37      1.00000e+00 
790.000      3.05742e-36      1.00000e+00 
791.000      6.11533e-35      1.00000e+00 
792.000      1.15726e-33      1.00000e+00 
793.000      2.07202e-32      1.00000e+00 
794.000      3.50997e-31      1.00000e+00 
795.000      5.62553e-30      1.00000e+00 
796.000      8.53048e-29      1.00000e+00 
797.000      1.22386e-27      1.00000e+00 
798.000      1.66129e-26      1.00000e+00 
799.000      2.13357e-25      1.00000e+00 
800.000      2.59252e-24      1.00000e+00 
801.000      2.98051e-23      1.00000e+00 
802.000      3.24199e-22      1.00000e+00 
803.000      3.33646e-21      1.00000e+00 
804.000      3.24874e-20      1.00000e+00 
805.000      2.99295e-19      1.00000e+00 
806.000      2.60879e-18      1.00000e+00 
807.000      2.15147e-17      1.00000e+00 
808.000      1.67876e-16      1.00000e+00 
809.000      1.23936e-15      1.00000e+00 
810.000      8.65695e-15      1.00000e+00 
811.000      5.72125e-14      1.00000e+00 
812.000      3.57747e-13      1.00000e+00 
813.000      2.11651e-12      1.00000e+00 
814.000      1.18475e-11      1.00000e+00 
815.000      6.27466e-11      1.00000e+00 
816.000      3.14425e-10      1.00000e+00 
817.000      1.49076e-09      1.00000e+00 
818.000      6.68741e-09      1.00000e+00 
819.000      2.83839e-08      1.00000e+00 
820.000      1.13986e-07      1.00000e+00 
821.000      4.33106e-07      1.00000e+00 
822.000      1.55705e-06      1.00000e+00 
823.000      5.29634e-06      1.00000e+00 
824.000      1.70457e-05      9.99999e-01 
825.000      5.19065e-05      9.99998e-01 
826.000      1.49553e-04      9.99993e-01 
827.000      4.07697e-04      9.99982e-01 
828.000      1.05159e-03      9.99952e-01 
829.000      2.56642e-03      9.99884e-01 
830.000      5.92621e-03      9.99732e-01 
831.000      1.29478e-02      9.99414e-01 
832.000      2.67663e-02      9.98788e-01 
833.000      5.23540e-02      9.97629e-01 
834.000      9.68911e-02      9.95612e-01 
835.000      1.69664e-01      9.92317e-01 
836.000      2.81106e-01      9.87270e-01 
837.000      4.40681e-01      9.80043e-01 
838.000      6.53661e-01      9.70398e-01 
839.000      9.17392e-01      9.58455e-01 
840.000      1.21824e+00      9.44831e-01 
841.000      1.53069e+00      9.30682e-01 
842.000      1.81977e+00      9.17590e-01 
843.000      2.04703e+00      9.07299e-01 
844.000      2.17875e+00      9.01334e-01 
845.000      2.19416e+00      9.00636e-01 
846.000      2.09078e+00      9.05317e-01 
847.000      1.88507e+00      9.14633e-01 
848.000      1.60815e+00      9.27174e-01 
849.000      1.29808e+00      9.41215e-01 
850.000      9.91426e-01      9.55103e-01 
851.000      7.16470e-01      9.67554e-01 
852.000      4.89910e-01      9.77814e-01 
853.000      3.16968e-01      9.85646e-01 
854.000      1.94042e-01      9.91213e-01 
855.000      1.12398e-01      9.94910e-01 
856.000      6.16032e-02      9.97210e-01 
857.000      3.19470e-02      9.98553e-01 
858.000      1.56762e-02      9.99290e-01 
859.000      7.27835e-03      9.99670e-01 
860.000      3.19749e-03      9.99855e-01 
861.000      1.32913e-03      9.99940e-01 
862.000      5.22771e-04      9.99976e-01 
863.000      1.94553e-04      9.99991e-01 
864.000      6.85092e-05      9.99997e-01 
865.000      2.28268e-05      9.99999e-01 
866.000      7.19655e-06      1.00000e+00 
867.000      2.14678e-06      1.00000e+00 
868.000      6.05951e-07      1.00000e+00 
869.000      1.61834e-07      1.00000e+00 
870.000      4.08968e-08      1.00000e+00 
871.000      9.77896e-09      1.00000e+00 
872.000      2.21249e-09      1.00000e+00 
873.000      4.73646e-10      1.00000e+00 
874.000      9.59426e-11      1.00000e+00 
875.000      1.83888e-11      1.00000e+00 
876.000      3.33490e-12      1.00000e+00 
877.000      5.72262e-13      1.00000e+00 
878.000      9.29163e-14      1.00000e+00 
879.000      1.42749e-14      1.00000e+00 
880.000      2.07510e-15      1.00000e+00 
881.000      2.85424e-16      1.00000e+00 
882.000      3.71471e-17      1.00000e+00 
883.000      4.57450e-18      1.00000e+00 
884.000      5.33024e-19      1.00000e+00 
885.000      5.87669e-20      1.00000e+00 
886.000      6.13059e-21      1.00000e+00 
887.000      6.05139e-22      1.00000e+00 
888.000      5.65185e-23      1.00000e+00 
889.000      4.99469e-24      1.00000e+00 
890.000      4.17646e-25      1.00000e+00 
891.000      3.30439e-26      1.00000e+00 
892.000      2.47374e-27      1.00000e+00 
893.000      1.75226e-28      1.00000e+00 
894.000      1.17443e-29      1.00000e+00 
895.000      7.44787e-31      1.00000e+00 
896.000      4.46909e-32      1.00000e+00 
897.000      2.53738e-33      1.00000e+00 
898.000      1.36311e-34      1.00000e+00 
899.000      6.92875e-36      1.00000e+00 
900.000      3.33241e-37      1.00000e+00 
901.000      1.51649e-38      1.00000e+00 
902.000      6.52975e-40      1.00000e+00 
903.000      2.66031e-41      1.00000e+00 
904.000      1.02552e-42      1.00000e+00 
905.000      3.74051e-44      1.00000e+00 
906.000      1.29090e-45      1.00000e+00 
907.000      4.21533e-47      1.00000e+00 
908.000      1.30240e-48      1.00000e+00 
909.000      3.80742e-50      1.00000e+00 
910.000      1.05315e-51      1.00000e+00 
911.000      2.75627e-53      1.00000e+00 
912.000      6.82537e-55      1.00000e+00 
913.000      1.59920e-56      1.00000e+00 
914.000      3.54526e-58      1.00000e+00 
915.000      7.43645e-60      1.00000e+00 
916.000      1.47589e-61      1.00000e+00 
917.000      2.77146e-63      1.00000e+00 
918.000      4.92418e-65      1.00000e+00 
919.000      8.27930e-67      1.00000e+00 
920.000      2.07006e-68      1.00000e+00 
921.000      4.18411e-67      1.00000e+00 
922.000      2.19639e-65      1.00000e+00 
923.000      1.09129e-63      1.00000e+00 
924.000      5.12966e-62      1.00000e+00 
925.000      2.28115e-60      1.00000e+00 
926.000      9.59704e-59      1.00000e+00 
927.000      3.81978e-57      1.00000e+00 
928.000      1.43832e-55      1.00000e+00 
929.000      5.12381e-54      1.00000e+00 
930.000      1.72682e-52      1.00000e+00 
931.000      5.50576e-51      1.00000e+00 
932.000      1.66076e-49      1.00000e+00 
933.000      4.73928e-48      1.00000e+00 
934.000      1.27949e-46      1.00000e+00 
935.000      3.26797e-45      1.00000e+00 
936.000      7.89655e-44      1.00000e+00 
937.000      1.80515e-42      1.00000e+00 
938.000      3.90399e-41      1.00000e+00 
939.000      7.98768e-40      1.00000e+00 
940.000      1.54615e-38      1.00000e+00 
941.000      2.83138e-37      1.00000e+00 
942.000      4.90526e-36      1.00000e+00 
943.000      8.03979e-35      1.00000e+00 
944.000      1.24665e-33      1.00000e+00 
945.000      1.82878e-32      1.00000e+00 
946.000      2.53803e-31      1.00000e+00 
947.000      3.33235e-30      1.00000e+00 
948.000      4.13924e-29      1.00000e+00 
949.000      4.86417e-28      1.00000e+00 
950.000      5.40772e-27      1.00000e+00 
951.000      5.68771e-26      1.00000e+00 
952.000      5.65950e-25      1.00000e+00 
953.000      5.32766e-24      1.00000e+00 
954.000      4.74474e-23      1.00000e+00 
955.000      3.99766e-22      1.00000e+00 
956.000      3.18653e-21      1.00000e+00 
957.000      2.40296e-20      1.00000e+00 
958.000      1.71432e-19      1.00000e+00 
959.000      1.15706e-18      1.00000e+00 
960.000      7.38820e-18      1.00000e+00 
961.000      4.46311e-17      1.00000e+00 
962.000      2.55067e-16      1.00000e+00 
963.000      1.37908e-15      1.00000e+00 
964.000      7.05409e-15      1.00000e+00 
965.000      3.41358e-14      1.00000e+00 
966.000      1.56278e-13      1.00000e+00 
967.000      6.76866e-13      1.00000e+00 
968.000      2.77348e-12      1.00000e+00 
969.000      1.07514e-11      1.00000e+00 
970.000      3.94296e-11      1.00000e+00 
971.000      1.36804e-10      1.00000e+00 
972.000      4.49046e-10      1.00000e+00 
973.000      1.39444e-09      1.00000e+00 
974.000      4.09665e-09      1.00000e+00 
975.000      1.13861e-08      1.00000e+00 
976.000      2.99390e-08      1.00000e+00 
977.000      7.44764e-08      1.00000e+00 
978.000      1.75274e-07      1.00000e+00 
979.000      3.90241e-07      1.00000e+00 
980.000      8.21990e-07      1.00000e+00 
981.000      1.63802e-06      1.00000e+00 
982.000      3.08807e-06      1.00000e+00 
983.000      5.50774e-06      1.00000e+00 
984.000      9.29346e-06      1.00000e+00 
985.000      1.48354e-05      9.99999e-01 
986.000      2.24046e-05      9.99999e-01 
987.000      3.20107e-05      9.99999e-01 
988.000      4.32682e-05      9.99998e-01 
989.000      5.53301e-05      9.99997e-01 
990.000      6.69377e-05      9.99997e-01 
991.000      7.66122e-05      9.99997e-01 
992.000      8.29551e-05      9.99996e-01 
993.000      8.49778e-05      9.99996e-01 
994.000      8.23541e-05      9.99996e-01 
995.000      7.55063e-05      9.99997e-01 
996.000      6.54935e-05      9.99997e-01 
997.000      5.37441e-05      9.99998e-01 
998.000      4.17236e-05      9.99998e-01 
999.000      3.06443e-05      9.99999e-01 
1000.000      2.12929e-05      9.99999e-01 
