# Gaussian folded, width=10 cm^-1
# [cm^-1] [(D/Ã…)^2 amu^-1]
0.000      1.21941e+04      0.00000e+00 
1.000      1.18607e+04      2.73451e-02 
2.000      1.09140e+04      1.04975e-01 
3.000      9.50123e+03      2.20835e-01 
4.000      7.82512e+03      3.58287e-01 
5.000      6.09706e+03      5.00000e-01 
6.000      4.49435e+03      6.31433e-01 
7.000      3.13424e+03      7.42972e-01 
8.000      2.06782e+03      8.30424e-01 
9.000      1.29066e+03      8.94157e-01 
10.000      7.62132e+02      9.37500e-01 
11.000      4.25760e+02      9.65085e-01 
12.000      2.25018e+02      9.81547e-01 
13.000      1.12509e+02      9.90773e-01 
14.000      5.32200e+01      9.95636e-01 
15.000      2.38166e+01      9.98047e-01 
16.000      1.00833e+01      9.99173e-01 
17.000      4.03872e+00      9.99669e-01 
18.000      1.53039e+00      9.99874e-01 
19.000      5.48627e-01      9.99955e-01 
20.000      1.86067e-01      9.99985e-01 
21.000      5.97010e-02      9.99995e-01 
22.000      1.81222e-02      9.99999e-01 
23.000      5.20422e-03      1.00000e+00 
24.000      1.41390e-03      1.00000e+00 
25.000      3.63413e-04      1.00000e+00 
26.000      8.83689e-05      1.00000e+00 
27.000      2.03290e-05      1.00000e+00 
28.000      4.42435e-06      1.00000e+00 
29.000      9.10964e-07      1.00000e+00 
30.000      1.77448e-07      1.00000e+00 
31.000      3.27007e-08      1.00000e+00 
32.000      5.70114e-09      1.00000e+00 
33.000      9.40338e-10      1.00000e+00 
34.000      1.46732e-10      1.00000e+00 
35.000      2.16611e-11      1.00000e+00 
36.000      3.02521e-12      1.00000e+00 
37.000      3.99713e-13      1.00000e+00 
38.000      4.99641e-14      1.00000e+00 
39.000      5.90861e-15      1.00000e+00 
40.000      6.61045e-16      1.00000e+00 
41.000      6.99671e-17      1.00000e+00 
42.000      7.00699e-18      1.00000e+00 
43.000      6.73638e-19      1.00000e+00 
44.000      1.59799e-19      1.00000e+00 
45.000      9.63030e-19      1.00000e+00 
46.000      8.65544e-18      1.00000e+00 
47.000      7.39775e-17      1.00000e+00 
48.000      5.98207e-16      1.00000e+00 
49.000      4.57641e-15      1.00000e+00 
50.000      3.31222e-14      1.00000e+00 
51.000      2.26796e-13      1.00000e+00 
52.000      1.46917e-12      1.00000e+00 
53.000      9.00390e-12      1.00000e+00 
54.000      5.22048e-11      1.00000e+00 
55.000      2.86360e-10      1.00000e+00 
56.000      1.48605e-09      1.00000e+00 
57.000      7.29589e-09      1.00000e+00 
58.000      3.38878e-08      1.00000e+00 
59.000      1.48912e-07      1.00000e+00 
60.000      6.19068e-07      1.00000e+00 
61.000      2.43482e-06      1.00000e+00 
62.000      9.05979e-06      1.00000e+00 
63.000      3.18926e-05      1.00000e+00 
64.000      1.06214e-04      1.00000e+00 
65.000      3.34656e-04      1.00000e+00 
66.000      9.97549e-04      1.00000e+00 
67.000      2.81314e-03      1.00000e+00 
68.000      7.50534e-03      9.99999e-01 
69.000      1.89440e-02      9.99998e-01 
70.000      4.52368e-02      9.99996e-01 
71.000      1.02196e-01      9.99992e-01 
72.000      2.18423e-01      9.99982e-01 
73.000      4.41657e-01      9.99964e-01 
74.000      8.44874e-01      9.99931e-01 
75.000      1.52905e+00      9.99875e-01 
76.000      2.61800e+00      9.99785e-01 
77.000      4.24074e+00      9.99652e-01 
78.000      6.49882e+00      9.99467e-01 
79.000      9.42211e+00      9.99227e-01 
80.000      1.29236e+01      9.98940e-01 
81.000      1.67703e+01      9.98625e-01 
82.000      2.05882e+01      9.98312e-01 
83.000      2.39121e+01      9.98039e-01 
84.000      2.62748e+01      9.97845e-01 
85.000      2.73138e+01      9.97760e-01 
86.000      2.68624e+01      9.97797e-01 
87.000      2.49937e+01      9.97950e-01 
88.000      2.20007e+01      9.98196e-01 
89.000      1.83217e+01      9.98498e-01 
90.000      1.44349e+01      9.98816e-01 
91.000      1.07593e+01      9.99118e-01 
92.000      7.58713e+00      9.99378e-01 
93.000      5.06164e+00      9.99585e-01 
94.000      3.19467e+00      9.99738e-01 
95.000      1.90758e+00      9.99844e-01 
96.000      1.07761e+00      9.99912e-01 
97.000      5.75916e-01      9.99953e-01 
98.000      2.91192e-01      9.99976e-01 
99.000      1.39291e-01      9.99989e-01 
100.000      6.30356e-02      9.99995e-01 
101.000      2.69880e-02      9.99998e-01 
102.000      1.09314e-02      9.99999e-01 
103.000      4.18894e-03      1.00000e+00 
104.000      1.51864e-03      1.00000e+00 
105.000      5.20864e-04      1.00000e+00 
106.000      1.69012e-04      1.00000e+00 
107.000      5.18836e-05      1.00000e+00 
108.000      1.50683e-05      1.00000e+00 
109.000      4.14020e-06      1.00000e+00 
110.000      1.07621e-06      1.00000e+00 
111.000      2.64666e-07      1.00000e+00 
112.000      6.15769e-08      1.00000e+00 
113.000      1.35538e-08      1.00000e+00 
114.000      2.82243e-09      1.00000e+00 
115.000      5.56043e-10      1.00000e+00 
116.000      1.03637e-10      1.00000e+00 
117.000      1.82743e-11      1.00000e+00 
118.000      3.04853e-12      1.00000e+00 
119.000      4.81129e-13      1.00000e+00 
120.000      7.18378e-14      1.00000e+00 
121.000      1.01477e-14      1.00000e+00 
122.000      1.35613e-15      1.00000e+00 
123.000      1.71458e-16      1.00000e+00 
124.000      2.05085e-17      1.00000e+00 
125.000      2.32078e-18      1.00000e+00 
126.000      2.48459e-19      1.00000e+00 
127.000      2.51649e-20      1.00000e+00 
128.000      2.41134e-21      1.00000e+00 
129.000      2.18597e-22      1.00000e+00 
130.000      1.87478e-23      1.00000e+00 
131.000      1.52117e-24      1.00000e+00 
132.000      1.16768e-25      1.00000e+00 
133.000      8.48000e-27      1.00000e+00 
134.000      5.82623e-28      1.00000e+00 
135.000      3.78704e-29      1.00000e+00 
136.000      2.32881e-30      1.00000e+00 
137.000      1.35485e-31      1.00000e+00 
138.000      7.45706e-33      1.00000e+00 
139.000      3.88299e-34      1.00000e+00 
140.000      1.91287e-35      1.00000e+00 
141.000      8.91514e-37      1.00000e+00 
142.000      3.93089e-38      1.00000e+00 
143.000      1.63974e-39      1.00000e+00 
144.000      6.47114e-41      1.00000e+00 
145.000      2.41606e-42      1.00000e+00 
146.000      8.53407e-44      1.00000e+00 
147.000      2.85184e-45      1.00000e+00 
148.000      9.01606e-47      1.00000e+00 
149.000      2.69668e-48      1.00000e+00 
150.000      7.63068e-50      1.00000e+00 
151.000      2.04277e-51      1.00000e+00 
152.000      5.17363e-53      1.00000e+00 
153.000      1.23963e-54      1.00000e+00 
154.000      2.81004e-56      1.00000e+00 
155.000      6.02634e-58      1.00000e+00 
156.000      1.22281e-59      1.00000e+00 
157.000      2.92081e-61      1.00000e+00 
158.000      2.62723e-60      1.00000e+00 
159.000      1.13417e-58      1.00000e+00 
160.000      4.63964e-57      1.00000e+00 
161.000      1.79559e-55      1.00000e+00 
162.000      6.57425e-54      1.00000e+00 
163.000      2.27721e-52      1.00000e+00 
164.000      7.46241e-51      1.00000e+00 
165.000      2.31351e-49      1.00000e+00 
166.000      6.78550e-48      1.00000e+00 
167.000      1.88283e-46      1.00000e+00 
168.000      4.94260e-45      1.00000e+00 
169.000      1.22749e-43      1.00000e+00 
170.000      2.88403e-42      1.00000e+00 
171.000      6.41059e-41      1.00000e+00 
172.000      1.34807e-39      1.00000e+00 
173.000      2.68193e-38      1.00000e+00 
174.000      5.04776e-37      1.00000e+00 
175.000      8.98809e-36      1.00000e+00 
176.000      1.51410e-34      1.00000e+00 
177.000      2.41300e-33      1.00000e+00 
178.000      3.63814e-32      1.00000e+00 
179.000      5.18941e-31      1.00000e+00 
180.000      7.00285e-30      1.00000e+00 
181.000      8.94024e-29      1.00000e+00 
182.000      1.07979e-27      1.00000e+00 
183.000      1.23382e-26      1.00000e+00 
184.000      1.33376e-25      1.00000e+00 
185.000      1.36403e-24      1.00000e+00 
186.000      1.31973e-23      1.00000e+00 
187.000      1.20799e-22      1.00000e+00 
188.000      1.04607e-21      1.00000e+00 
189.000      8.56994e-21      1.00000e+00 
190.000      6.64218e-20      1.00000e+00 
191.000      4.87036e-19      1.00000e+00 
192.000      3.37854e-18      1.00000e+00 
193.000      2.21725e-17      1.00000e+00 
194.000      1.37663e-16      1.00000e+00 
195.000      8.08609e-16      1.00000e+00 
196.000      4.49342e-15      1.00000e+00 
197.000      2.36229e-14      1.00000e+00 
198.000      1.17491e-13      1.00000e+00 
199.000      5.52837e-13      1.00000e+00 
200.000      2.46097e-12      1.00000e+00 
201.000      1.03641e-11      1.00000e+00 
202.000      4.12930e-11      1.00000e+00 
203.000      1.55646e-10      1.00000e+00 
204.000      5.55031e-10      1.00000e+00 
205.000      1.87247e-09      1.00000e+00 
206.000      5.97624e-09      1.00000e+00 
207.000      1.80451e-08      1.00000e+00 
208.000      5.15478e-08      1.00000e+00 
209.000      1.39308e-07      1.00000e+00 
210.000      3.56174e-07      1.00000e+00 
211.000      8.61518e-07      1.00000e+00 
212.000      1.97144e-06      1.00000e+00 
213.000      4.26797e-06      1.00000e+00 
214.000      8.74132e-06      1.00000e+00 
215.000      1.69375e-05      1.00000e+00 
216.000      3.10485e-05      1.00000e+00 
217.000      5.38453e-05      1.00000e+00 
218.000      8.83433e-05      1.00000e+00 
219.000      1.37125e-04      1.00000e+00 
220.000      2.01362e-04      1.00000e+00 
221.000      2.79741e-04      1.00000e+00 
222.000      3.67665e-04      1.00000e+00 
223.000      4.57157e-04      1.00000e+00 
224.000      5.37770e-04      1.00000e+00 
225.000      5.98474e-04      1.00000e+00 
226.000      6.30103e-04      1.00000e+00 
227.000      6.27619e-04      1.00000e+00 
228.000      5.91422e-04      1.00000e+00 
229.000      5.27250e-04      1.00000e+00 
230.000      4.44686e-04      1.00000e+00 
231.000      3.54820e-04      1.00000e+00 
232.000      2.67843e-04      1.00000e+00 
233.000      1.91280e-04      1.00000e+00 
234.000      1.29234e-04      1.00000e+00 
235.000      8.26040e-05      1.00000e+00 
236.000      4.99509e-05      1.00000e+00 
237.000      2.85761e-05      1.00000e+00 
238.000      1.54661e-05      1.00000e+00 
239.000      7.91911e-06      1.00000e+00 
240.000      3.83609e-06      1.00000e+00 
241.000      1.75800e-06      1.00000e+00 
242.000      7.62198e-07      1.00000e+00 
243.000      3.12632e-07      1.00000e+00 
244.000      1.21316e-07      1.00000e+00 
245.000      4.45366e-08      1.00000e+00 
246.000      1.54680e-08      1.00000e+00 
247.000      5.08243e-09      1.00000e+00 
248.000      1.57988e-09      1.00000e+00 
249.000      4.64618e-10      1.00000e+00 
250.000      1.29266e-10      1.00000e+00 
251.000      3.40245e-11      1.00000e+00 
252.000      8.47258e-12      1.00000e+00 
253.000      1.99598e-12      1.00000e+00 
254.000      4.44853e-13      1.00000e+00 
255.000      9.37979e-14      1.00000e+00 
256.000      1.87106e-14      1.00000e+00 
257.000      3.53101e-15      1.00000e+00 
258.000      6.30419e-16      1.00000e+00 
259.000      1.06482e-16      1.00000e+00 
260.000      1.70154e-17      1.00000e+00 
261.000      2.57231e-18      1.00000e+00 
262.000      3.67895e-19      1.00000e+00 
263.000      4.97784e-20      1.00000e+00 
264.000      6.37201e-21      1.00000e+00 
265.000      7.71666e-22      1.00000e+00 
266.000      8.84096e-23      1.00000e+00 
267.000      9.58269e-24      1.00000e+00 
268.000      9.82637e-25      1.00000e+00 
269.000      9.53271e-26      1.00000e+00 
270.000      8.74898e-27      1.00000e+00 
271.000      7.59654e-28      1.00000e+00 
272.000      6.24010e-29      1.00000e+00 
273.000      4.84937e-30      1.00000e+00 
274.000      3.56530e-31      1.00000e+00 
275.000      2.47985e-32      1.00000e+00 
276.000      1.63182e-33      1.00000e+00 
277.000      1.01586e-34      1.00000e+00 
278.000      5.98298e-36      1.00000e+00 
279.000      3.33362e-37      1.00000e+00 
280.000      1.75725e-38      1.00000e+00 
281.000      8.76330e-40      1.00000e+00 
282.000      4.13447e-41      1.00000e+00 
283.000      1.84540e-42      1.00000e+00 
284.000      7.79250e-44      1.00000e+00 
285.000      3.11302e-45      1.00000e+00 
286.000      1.17653e-46      1.00000e+00 
287.000      4.20672e-48      1.00000e+00 
288.000      1.42299e-49      1.00000e+00 
289.000      4.55383e-51      1.00000e+00 
290.000      1.37870e-52      1.00000e+00 
291.000      3.94894e-54      1.00000e+00 
292.000      1.07006e-55      1.00000e+00 
293.000      2.74318e-57      1.00000e+00 
294.000      6.65299e-59      1.00000e+00 
295.000      1.52650e-60      1.00000e+00 
296.000      3.31357e-62      1.00000e+00 
297.000      6.80475e-64      1.00000e+00 
298.000      1.32204e-65      1.00000e+00 
299.000      2.42995e-67      1.00000e+00 
300.000      4.22538e-69      1.00000e+00 
301.000      6.95108e-71      1.00000e+00 
302.000      1.08182e-72      1.00000e+00 
303.000      1.59286e-74      1.00000e+00 
304.000      2.21880e-76      1.00000e+00 
305.000      2.92398e-78      1.00000e+00 
306.000      3.64543e-80      1.00000e+00 
307.000      4.29972e-82      1.00000e+00 
308.000      4.79789e-84      1.00000e+00 
309.000      5.06498e-86      1.00000e+00 
310.000      5.05851e-88      1.00000e+00 
311.000      4.77953e-90      1.00000e+00 
312.000      4.27233e-92      1.00000e+00 
313.000      3.61295e-94      1.00000e+00 
314.000      2.89053e-96      1.00000e+00 
315.000      2.18781e-98      1.00000e+00 
316.000     1.56661e-100      1.00000e+00 
317.000     1.06128e-102      1.00000e+00 
318.000     6.80166e-105      1.00000e+00 
319.000     4.12399e-107      1.00000e+00 
320.000     2.36559e-109      1.00000e+00 
321.000     1.28374e-111      1.00000e+00 
322.000     6.59073e-114      1.00000e+00 
323.000     3.20116e-116      1.00000e+00 
324.000     1.47095e-118      1.00000e+00 
325.000     6.39451e-121      1.00000e+00 
326.000     2.62987e-123      1.00000e+00 
327.000     1.02324e-125      1.00000e+00 
328.000     3.76651e-128      1.00000e+00 
329.000     1.31165e-130      1.00000e+00 
330.000     4.32131e-133      1.00000e+00 
331.000     1.34688e-135      1.00000e+00 
332.000     3.97157e-138      1.00000e+00 
333.000     1.10793e-140      1.00000e+00 
334.000     2.92401e-143      1.00000e+00 
335.000     7.30068e-146      1.00000e+00 
336.000     1.72451e-148      1.00000e+00 
337.000     3.85377e-151      1.00000e+00 
338.000     8.14749e-154      1.00000e+00 
339.000     1.62959e-156      1.00000e+00 
340.000     3.08356e-159      1.00000e+00 
341.000     5.52004e-162      1.00000e+00 
342.000     9.34868e-165      1.00000e+00 
343.000     1.49788e-167      1.00000e+00 
344.000     2.27049e-170      1.00000e+00 
345.000     3.25597e-173      1.00000e+00 
346.000     4.41732e-176      1.00000e+00 
347.000     5.66963e-179      1.00000e+00 
348.000     6.88444e-182      1.00000e+00 
349.000     7.90860e-185      1.00000e+00 
350.000     8.59505e-188      1.00000e+00 
351.000     8.83721e-191      1.00000e+00 
352.000     8.59605e-194      1.00000e+00 
353.000     7.91044e-197      1.00000e+00 
354.000     6.88684e-200      1.00000e+00 
355.000     5.67227e-203      1.00000e+00 
356.000     4.41989e-206      1.00000e+00 
357.000     3.25824e-209      1.00000e+00 
358.000     2.27234e-212      1.00000e+00 
359.000     1.49927e-215      1.00000e+00 
360.000     9.35848e-219      1.00000e+00 
361.000     5.52647e-222      1.00000e+00 
362.000     3.08751e-225      1.00000e+00 
363.000     1.63187e-228      1.00000e+00 
364.000     8.15982e-232      1.00000e+00 
365.000     3.86006e-235      1.00000e+00 
366.000     1.72752e-238      1.00000e+00 
367.000     7.31429e-242      1.00000e+00 
368.000     2.92980e-245      1.00000e+00 
369.000     1.11025e-248      1.00000e+00 
370.000     3.98036e-252      1.00000e+00 
371.000     1.35002e-255      1.00000e+00 
372.000     4.33188e-259      1.00000e+00 
373.000     1.31501e-262      1.00000e+00 
374.000     3.77661e-266      1.00000e+00 
375.000     1.02610e-269      1.00000e+00 
376.000     2.63753e-273      1.00000e+00 
377.000     6.41388e-277      1.00000e+00 
378.000     1.47558e-280      1.00000e+00 
379.000     3.21160e-284      1.00000e+00 
380.000     6.61301e-288      1.00000e+00 
381.000     1.28823e-291      1.00000e+00 
382.000     2.37414e-295      1.00000e+00 
383.000     4.13938e-299      1.00000e+00 
384.000     6.82783e-303      1.00000e+00 
385.000     1.06549e-306      1.00000e+00 
386.000     1.57300e-310      1.00000e+00 
387.000     2.19700e-314      1.00000e+00 
388.000     2.90301e-318      1.00000e+00 
389.000     3.65609e-322      1.00000e+00 
390.000      0.00000e+00      1.00000e+00 
391.000      0.00000e+00      1.00000e+00 
392.000      0.00000e+00      1.00000e+00 
393.000      0.00000e+00      1.00000e+00 
394.000      0.00000e+00      1.00000e+00 
395.000      0.00000e+00      1.00000e+00 
396.000      0.00000e+00      1.00000e+00 
397.000      0.00000e+00      1.00000e+00 
398.000      0.00000e+00      1.00000e+00 
399.000      0.00000e+00      1.00000e+00 
400.000      0.00000e+00      1.00000e+00 
401.000      0.00000e+00      1.00000e+00 
402.000      0.00000e+00      1.00000e+00 
403.000      0.00000e+00      1.00000e+00 
404.000      0.00000e+00      1.00000e+00 
405.000      0.00000e+00      1.00000e+00 
406.000      0.00000e+00      1.00000e+00 
407.000      0.00000e+00      1.00000e+00 
408.000      0.00000e+00      1.00000e+00 
409.000      0.00000e+00      1.00000e+00 
410.000      0.00000e+00      1.00000e+00 
411.000      0.00000e+00      1.00000e+00 
412.000      0.00000e+00      1.00000e+00 
413.000      0.00000e+00      1.00000e+00 
414.000      0.00000e+00      1.00000e+00 
415.000      0.00000e+00      1.00000e+00 
416.000      0.00000e+00      1.00000e+00 
417.000      0.00000e+00      1.00000e+00 
418.000      0.00000e+00      1.00000e+00 
419.000      0.00000e+00      1.00000e+00 
420.000      0.00000e+00      1.00000e+00 
421.000      0.00000e+00      1.00000e+00 
422.000      0.00000e+00      1.00000e+00 
423.000      0.00000e+00      1.00000e+00 
424.000      0.00000e+00      1.00000e+00 
425.000      0.00000e+00      1.00000e+00 
426.000      0.00000e+00      1.00000e+00 
427.000      0.00000e+00      1.00000e+00 
428.000      0.00000e+00      1.00000e+00 
429.000      0.00000e+00      1.00000e+00 
430.000      0.00000e+00      1.00000e+00 
431.000      0.00000e+00      1.00000e+00 
432.000      0.00000e+00      1.00000e+00 
433.000      0.00000e+00      1.00000e+00 
434.000      0.00000e+00      1.00000e+00 
435.000      0.00000e+00      1.00000e+00 
436.000      0.00000e+00      1.00000e+00 
437.000      0.00000e+00      1.00000e+00 
438.000      0.00000e+00      1.00000e+00 
439.000      0.00000e+00      1.00000e+00 
440.000      0.00000e+00      1.00000e+00 
441.000     1.72923e-322      1.00000e+00 
442.000     1.37334e-318      1.00000e+00 
443.000     1.04232e-314      1.00000e+00 
444.000     7.48462e-311      1.00000e+00 
445.000     5.08487e-307      1.00000e+00 
446.000     3.26838e-303      1.00000e+00 
447.000     1.98761e-299      1.00000e+00 
448.000     1.14359e-295      1.00000e+00 
449.000     6.22523e-292      1.00000e+00 
450.000     3.20615e-288      1.00000e+00 
451.000     1.56227e-284      1.00000e+00 
452.000     7.20232e-281      1.00000e+00 
453.000     3.14147e-277      1.00000e+00 
454.000     1.29640e-273      1.00000e+00 
455.000     5.06161e-270      1.00000e+00 
456.000     1.86975e-266      1.00000e+00 
457.000     6.53467e-263      1.00000e+00 
458.000     2.16077e-259      1.00000e+00 
459.000     6.75986e-256      1.00000e+00 
460.000     2.00084e-252      1.00000e+00 
461.000     5.60315e-249      1.00000e+00 
462.000     1.48456e-245      1.00000e+00 
463.000     3.72142e-242      1.00000e+00 
464.000     8.82604e-239      1.00000e+00 
465.000     1.98047e-235      1.00000e+00 
466.000     4.20452e-232      1.00000e+00 
467.000     8.44521e-229      1.00000e+00 
468.000     1.60491e-225      1.00000e+00 
469.000     2.88560e-222      1.00000e+00 
470.000     4.90873e-219      1.00000e+00 
471.000     7.90037e-216      1.00000e+00 
472.000     1.20302e-212      1.00000e+00 
473.000     1.73318e-209      1.00000e+00 
474.000     2.36244e-206      1.00000e+00 
475.000     3.04667e-203      1.00000e+00 
476.000     3.71738e-200      1.00000e+00 
477.000     4.29135e-197      1.00000e+00 
478.000     4.68704e-194      1.00000e+00 
479.000     4.84339e-191      1.00000e+00 
480.000     4.73530e-188      1.00000e+00 
481.000     4.38018e-185      1.00000e+00 
482.000     3.83340e-182      1.00000e+00 
483.000     3.17411e-179      1.00000e+00 
484.000     2.48661e-176      1.00000e+00 
485.000     1.84307e-173      1.00000e+00 
486.000     1.29247e-170      1.00000e+00 
487.000     8.57526e-168      1.00000e+00 
488.000     5.38296e-165      1.00000e+00 
489.000     3.19700e-162      1.00000e+00 
490.000     1.79643e-159      1.00000e+00 
491.000     9.55048e-157      1.00000e+00 
492.000     4.80383e-154      1.00000e+00 
493.000     2.28611e-151      1.00000e+00 
494.000     1.02933e-148      1.00000e+00 
495.000     4.38488e-146      1.00000e+00 
496.000     1.76729e-143      1.00000e+00 
497.000     6.73918e-141      1.00000e+00 
498.000     2.43138e-138      1.00000e+00 
499.000     8.29936e-136      1.00000e+00 
500.000     2.68031e-133      1.00000e+00 
501.000     8.18975e-131      1.00000e+00 
502.000     2.36758e-128      1.00000e+00 
503.000     6.47567e-126      1.00000e+00 
504.000     1.67576e-123      1.00000e+00 
505.000     4.10286e-121      1.00000e+00 
506.000     9.50404e-119      1.00000e+00 
507.000     2.08294e-116      1.00000e+00 
508.000     4.31908e-114      1.00000e+00 
509.000     8.47330e-112      1.00000e+00 
510.000     1.57276e-109      1.00000e+00 
511.000     2.76195e-107      1.00000e+00 
512.000     4.58899e-105      1.00000e+00 
513.000     7.21382e-103      1.00000e+00 
514.000     1.07290e-100      1.00000e+00 
515.000      1.50973e-98      1.00000e+00 
516.000      2.00996e-96      1.00000e+00 
517.000      2.53175e-94      1.00000e+00 
518.000      3.01717e-92      1.00000e+00 
519.000      3.40193e-90      1.00000e+00 
520.000      3.62908e-88      1.00000e+00 
521.000      3.66280e-86      1.00000e+00 
522.000      3.49765e-84      1.00000e+00 
523.000      3.15998e-82      1.00000e+00 
524.000      2.70109e-80      1.00000e+00 
525.000      2.18443e-78      1.00000e+00 
526.000      1.67141e-76      1.00000e+00 
527.000      1.20996e-74      1.00000e+00 
528.000      8.28719e-73      1.00000e+00 
529.000      5.37016e-71      1.00000e+00 
530.000      3.29240e-69      1.00000e+00 
531.000      1.90977e-67      1.00000e+00 
532.000      1.04808e-65      1.00000e+00 
533.000      5.44196e-64      1.00000e+00 
534.000      2.67336e-62      1.00000e+00 
535.000      1.24253e-60      1.00000e+00 
536.000      5.46383e-59      1.00000e+00 
537.000      2.27317e-57      1.00000e+00 
538.000      8.94771e-56      1.00000e+00 
539.000      3.33223e-54      1.00000e+00 
540.000      1.17409e-52      1.00000e+00 
541.000      3.91392e-51      1.00000e+00 
542.000      1.23443e-49      1.00000e+00 
543.000      3.68351e-48      1.00000e+00 
544.000      1.03992e-46      1.00000e+00 
545.000      2.77769e-45      1.00000e+00 
546.000      7.01954e-44      1.00000e+00 
547.000      1.67832e-42      1.00000e+00 
548.000      3.79652e-41      1.00000e+00 
549.000      8.12528e-40      1.00000e+00 
550.000      1.64525e-38      1.00000e+00 
551.000      3.15187e-37      1.00000e+00 
552.000      5.71277e-36      1.00000e+00 
553.000      9.79639e-35      1.00000e+00 
554.000      1.58938e-33      1.00000e+00 
555.000      2.43966e-32      1.00000e+00 
556.000      3.54301e-31      1.00000e+00 
557.000      4.86807e-30      1.00000e+00 
558.000      6.32822e-29      1.00000e+00 
559.000      7.78300e-28      1.00000e+00 
560.000      9.05635e-27      1.00000e+00 
561.000      9.97010e-26      1.00000e+00 
562.000      1.03845e-24      1.00000e+00 
563.000      1.02332e-23      1.00000e+00 
564.000      9.54066e-23      1.00000e+00 
565.000      8.41558e-22      1.00000e+00 
566.000      7.02310e-21      1.00000e+00 
567.000      5.54515e-20      1.00000e+00 
568.000      4.14225e-19      1.00000e+00 
569.000      2.92751e-18      1.00000e+00 
570.000      1.95749e-17      1.00000e+00 
571.000      1.23834e-16      1.00000e+00 
572.000      7.41169e-16      1.00000e+00 
573.000      4.19695e-15      1.00000e+00 
574.000      2.24847e-14      1.00000e+00 
575.000      1.13967e-13      1.00000e+00 
576.000      5.46524e-13      1.00000e+00 
577.000      2.47957e-12      1.00000e+00 
578.000      1.06434e-11      1.00000e+00 
579.000      4.32237e-11      1.00000e+00 
580.000      1.66074e-10      1.00000e+00 
581.000      6.03693e-10      1.00000e+00 
582.000      2.07620e-09      1.00000e+00 
583.000      6.75549e-09      1.00000e+00 
584.000      2.07961e-08      1.00000e+00 
585.000      6.05679e-08      1.00000e+00 
586.000      1.66893e-07      1.00000e+00 
587.000      4.35082e-07      1.00000e+00 
588.000      1.07310e-06      1.00000e+00 
589.000      2.50405e-06      1.00000e+00 
590.000      5.52817e-06      1.00000e+00 
591.000      1.15466e-05      1.00000e+00 
592.000      2.28173e-05      1.00000e+00 
593.000      4.26587e-05      1.00000e+00 
594.000      7.54546e-05      1.00000e+00 
595.000      1.26269e-04      1.00000e+00 
596.000      1.99915e-04      1.00000e+00 
597.000      2.99451e-04      1.00000e+00 
598.000      4.24365e-04      1.00000e+00 
599.000      5.68969e-04      1.00000e+00 
600.000      7.21722e-04      1.00000e+00 
601.000      8.66135e-04      1.00000e+00 
602.000      9.83408e-04      1.00000e+00 
603.000      1.05637e-03      1.00000e+00 
604.000      1.07357e-03      1.00000e+00 
605.000      1.03223e-03      1.00000e+00 
606.000      9.38982e-04      1.00000e+00 
607.000      8.08108e-04      1.00000e+00 
608.000      6.57982e-04      1.00000e+00 
609.000      5.06863e-04      1.00000e+00 
610.000      3.69402e-04      1.00000e+00 
611.000      2.54706e-04      1.00000e+00 
612.000      1.66154e-04      1.00000e+00 
613.000      1.02545e-04      1.00000e+00 
614.000      5.98757e-05      1.00000e+00 
615.000      3.30763e-05      1.00000e+00 
616.000      1.72868e-05      1.00000e+00 
617.000      8.54756e-06      1.00000e+00 
618.000      3.99854e-06      1.00000e+00 
619.000      1.76966e-06      1.00000e+00 
620.000      7.40987e-07      1.00000e+00 
621.000      2.93536e-07      1.00000e+00 
622.000      1.10012e-07      1.00000e+00 
623.000      3.90079e-08      1.00000e+00 
624.000      1.30856e-08      1.00000e+00 
625.000      4.15301e-09      1.00000e+00 
626.000      1.24699e-09      1.00000e+00 
627.000      3.54235e-10      1.00000e+00 
628.000      9.52030e-11      1.00000e+00 
629.000      2.42069e-11      1.00000e+00 
630.000      5.82312e-12      1.00000e+00 
631.000      1.32526e-12      1.00000e+00 
632.000      2.85349e-13      1.00000e+00 
633.000      5.81272e-14      1.00000e+00 
634.000      1.12024e-14      1.00000e+00 
635.000      2.04255e-15      1.00000e+00 
636.000      3.52339e-16      1.00000e+00 
637.000      5.75013e-17      1.00000e+00 
638.000      8.87816e-18      1.00000e+00 
639.000      1.29687e-18      1.00000e+00 
640.000      1.79224e-19      1.00000e+00 
641.000      2.34328e-20      1.00000e+00 
642.000      2.89855e-21      1.00000e+00 
643.000      3.39207e-22      1.00000e+00 
644.000      3.75557e-23      1.00000e+00 
645.000      3.93381e-24      1.00000e+00 
646.000      3.89833e-25      1.00000e+00 
647.000      3.65486e-26      1.00000e+00 
648.000      3.24183e-27      1.00000e+00 
649.000      2.72042e-28      1.00000e+00 
650.000      2.15977e-29      1.00000e+00 
651.000      1.62221e-30      1.00000e+00 
652.000      1.15274e-31      1.00000e+00 
653.000      7.74969e-33      1.00000e+00 
654.000      4.92904e-34      1.00000e+00 
655.000      2.96597e-35      1.00000e+00 
656.000      1.68848e-36      1.00000e+00 
657.000      9.09395e-38      1.00000e+00 
658.000      4.63377e-39      1.00000e+00 
659.000      2.23379e-40      1.00000e+00 
660.000      1.01877e-41      1.00000e+00 
661.000      4.39577e-43      1.00000e+00 
662.000      1.79440e-44      1.00000e+00 
663.000      6.92992e-46      1.00000e+00 
664.000      2.53200e-47      1.00000e+00 
665.000      8.75232e-49      1.00000e+00 
666.000      2.86225e-50      1.00000e+00 
667.000      8.85560e-52      1.00000e+00 
668.000      2.59211e-53      1.00000e+00 
669.000      7.17815e-55      1.00000e+00 
670.000      1.88060e-56      1.00000e+00 
671.000      4.66129e-58      1.00000e+00 
672.000      1.09305e-59      1.00000e+00 
673.000      2.42492e-61      1.00000e+00 
674.000      5.08955e-63      1.00000e+00 
675.000      1.01062e-64      1.00000e+00 
676.000      1.89853e-66      1.00000e+00 
677.000      3.37421e-68      1.00000e+00 
678.000      5.67350e-70      1.00000e+00 
679.000      9.02513e-72      1.00000e+00 
680.000      1.35825e-73      1.00000e+00 
681.000      1.93389e-75      1.00000e+00 
682.000      2.60498e-77      1.00000e+00 
683.000      3.31973e-79      1.00000e+00 
684.000      4.00244e-81      1.00000e+00 
685.000      4.56530e-83      1.00000e+00 
686.000      4.92649e-85      1.00000e+00 
687.000      5.02955e-87      1.00000e+00 
688.000      4.85785e-89      1.00000e+00 
689.000      4.43897e-91      1.00000e+00 
690.000      3.83746e-93      1.00000e+00 
691.000      3.13854e-95      1.00000e+00 
692.000      2.42849e-97      1.00000e+00 
693.000      1.77773e-99      1.00000e+00 
694.000     1.23117e-101      1.00000e+00 
695.000     8.06669e-104      1.00000e+00 
696.000     5.00028e-106      1.00000e+00 
697.000     2.93235e-108      1.00000e+00 
698.000     1.62690e-110      1.00000e+00 
699.000     8.53938e-113      1.00000e+00 
700.000     4.24048e-115      1.00000e+00 
701.000     1.99217e-117      1.00000e+00 
702.000     8.85443e-120      1.00000e+00 
703.000     3.72321e-122      1.00000e+00 
704.000     1.48114e-124      1.00000e+00 
705.000     5.57438e-127      1.00000e+00 
706.000     1.98481e-129      1.00000e+00 
707.000     6.68596e-132      1.00000e+00 
708.000     2.13074e-134      1.00000e+00 
709.000     6.42421e-137      1.00000e+00 
710.000     1.83244e-139      1.00000e+00 
711.000     4.94497e-142      1.00000e+00 
712.000     1.26246e-144      1.00000e+00 
713.000     3.04926e-147      1.00000e+00 
714.000     6.96775e-150      1.00000e+00 
715.000     1.50630e-152      1.00000e+00 
716.000     3.08073e-155      1.00000e+00 
717.000     5.96097e-158      1.00000e+00 
718.000     1.09119e-160      1.00000e+00 
719.000     1.88976e-163      1.00000e+00 
720.000     3.09624e-166      1.00000e+00 
721.000     4.79936e-169      1.00000e+00 
722.000     7.03806e-172      1.00000e+00 
723.000     9.76438e-175      1.00000e+00 
724.000     1.28161e-177      1.00000e+00 
725.000     1.59144e-180      1.00000e+00 
726.000     1.86959e-183      1.00000e+00 
727.000     2.07789e-186      1.00000e+00 
728.000     2.18484e-189      1.00000e+00 
729.000     2.17339e-192      1.00000e+00 
730.000     2.04539e-195      1.00000e+00 
731.000     1.82111e-198      1.00000e+00 
732.000     1.53397e-201      1.00000e+00 
733.000     1.22242e-204      1.00000e+00 
734.000     9.21599e-208      1.00000e+00 
735.000     6.57333e-211      1.00000e+00 
736.000     4.43557e-214      1.00000e+00 
737.000     2.83162e-217      1.00000e+00 
738.000     1.71017e-220      1.00000e+00 
739.000     9.77162e-224      1.00000e+00 
740.000     5.28218e-227      1.00000e+00 
741.000     2.70135e-230      1.00000e+00 
742.000     1.30698e-233      1.00000e+00 
743.000     5.98243e-237      1.00000e+00 
744.000     2.59064e-240      1.00000e+00 
745.000     1.06134e-243      1.00000e+00 
746.000     4.11363e-247      1.00000e+00 
747.000     1.50840e-250      1.00000e+00 
748.000     5.23270e-254      1.00000e+00 
749.000     1.71734e-257      1.00000e+00 
750.000     5.33222e-261      1.00000e+00 
751.000     1.56631e-264      1.00000e+00 
752.000     4.35282e-268      1.00000e+00 
753.000     1.14441e-271      1.00000e+00 
754.000     2.84652e-275      1.00000e+00 
755.000     6.69832e-279      1.00000e+00 
756.000     1.49121e-282      1.00000e+00 
757.000     3.14072e-286      1.00000e+00 
758.000     6.25809e-290      1.00000e+00 
759.000     1.17971e-293      1.00000e+00 
760.000     2.10390e-297      1.00000e+00 
761.000     3.54975e-301      1.00000e+00 
762.000     5.66617e-305      1.00000e+00 
763.000     8.55661e-309      1.00000e+00 
764.000     1.22246e-312      1.00000e+00 
765.000     1.65228e-316      1.00000e+00 
766.000     2.11262e-320      1.00000e+00 
767.000      0.00000e+00      1.00000e+00 
768.000      0.00000e+00      1.00000e+00 
769.000      0.00000e+00      1.00000e+00 
770.000      0.00000e+00      1.00000e+00 
771.000      0.00000e+00      1.00000e+00 
772.000      0.00000e+00      1.00000e+00 
773.000      0.00000e+00      1.00000e+00 
774.000      0.00000e+00      1.00000e+00 
775.000      0.00000e+00      1.00000e+00 
776.000      0.00000e+00      1.00000e+00 
777.000      0.00000e+00      1.00000e+00 
778.000      0.00000e+00      1.00000e+00 
779.000      0.00000e+00      1.00000e+00 
780.000      0.00000e+00      1.00000e+00 
781.000      0.00000e+00      1.00000e+00 
782.000      0.00000e+00      1.00000e+00 
783.000      0.00000e+00      1.00000e+00 
784.000      0.00000e+00      1.00000e+00 
785.000      0.00000e+00      1.00000e+00 
786.000      0.00000e+00      1.00000e+00 
787.000      0.00000e+00      1.00000e+00 
788.000      0.00000e+00      1.00000e+00 
789.000      0.00000e+00      1.00000e+00 
790.000      0.00000e+00      1.00000e+00 
791.000      0.00000e+00      1.00000e+00 
792.000      0.00000e+00      1.00000e+00 
793.000      0.00000e+00      1.00000e+00 
794.000      0.00000e+00      1.00000e+00 
795.000      0.00000e+00      1.00000e+00 
796.000      0.00000e+00      1.00000e+00 
797.000      0.00000e+00      1.00000e+00 
798.000      0.00000e+00      1.00000e+00 
799.000      0.00000e+00      1.00000e+00 
800.000      0.00000e+00      1.00000e+00 
801.000      0.00000e+00      1.00000e+00 
802.000      0.00000e+00      1.00000e+00 
803.000      0.00000e+00      1.00000e+00 
804.000      0.00000e+00      1.00000e+00 
805.000      0.00000e+00      1.00000e+00 
806.000      0.00000e+00      1.00000e+00 
807.000      0.00000e+00      1.00000e+00 
808.000      0.00000e+00      1.00000e+00 
809.000      0.00000e+00      1.00000e+00 
810.000      0.00000e+00      1.00000e+00 
811.000      0.00000e+00      1.00000e+00 
812.000      0.00000e+00      1.00000e+00 
813.000      0.00000e+00      1.00000e+00 
814.000      0.00000e+00      1.00000e+00 
815.000      0.00000e+00      1.00000e+00 
816.000      0.00000e+00      1.00000e+00 
817.000      0.00000e+00      1.00000e+00 
818.000      0.00000e+00      1.00000e+00 
819.000      0.00000e+00      1.00000e+00 
820.000      0.00000e+00      1.00000e+00 
821.000      0.00000e+00      1.00000e+00 
822.000      0.00000e+00      1.00000e+00 
823.000      0.00000e+00      1.00000e+00 
824.000      0.00000e+00      1.00000e+00 
825.000      0.00000e+00      1.00000e+00 
826.000      0.00000e+00      1.00000e+00 
827.000      0.00000e+00      1.00000e+00 
828.000      0.00000e+00      1.00000e+00 
829.000      0.00000e+00      1.00000e+00 
830.000      0.00000e+00      1.00000e+00 
831.000      0.00000e+00      1.00000e+00 
832.000      0.00000e+00      1.00000e+00 
833.000      0.00000e+00      1.00000e+00 
834.000      0.00000e+00      1.00000e+00 
835.000      0.00000e+00      1.00000e+00 
836.000      0.00000e+00      1.00000e+00 
837.000      0.00000e+00      1.00000e+00 
838.000      0.00000e+00      1.00000e+00 
839.000      0.00000e+00      1.00000e+00 
840.000      0.00000e+00      1.00000e+00 
841.000      0.00000e+00      1.00000e+00 
842.000      0.00000e+00      1.00000e+00 
843.000      0.00000e+00      1.00000e+00 
844.000      0.00000e+00      1.00000e+00 
845.000      0.00000e+00      1.00000e+00 
846.000      0.00000e+00      1.00000e+00 
847.000      0.00000e+00      1.00000e+00 
848.000      0.00000e+00      1.00000e+00 
849.000      0.00000e+00      1.00000e+00 
850.000      0.00000e+00      1.00000e+00 
851.000      0.00000e+00      1.00000e+00 
852.000      0.00000e+00      1.00000e+00 
853.000      0.00000e+00      1.00000e+00 
854.000      0.00000e+00      1.00000e+00 
855.000      0.00000e+00      1.00000e+00 
856.000      0.00000e+00      1.00000e+00 
857.000      0.00000e+00      1.00000e+00 
858.000      0.00000e+00      1.00000e+00 
859.000      0.00000e+00      1.00000e+00 
860.000      0.00000e+00      1.00000e+00 
861.000      0.00000e+00      1.00000e+00 
862.000      0.00000e+00      1.00000e+00 
863.000      0.00000e+00      1.00000e+00 
864.000      0.00000e+00      1.00000e+00 
865.000      0.00000e+00      1.00000e+00 
866.000      0.00000e+00      1.00000e+00 
867.000      0.00000e+00      1.00000e+00 
868.000      0.00000e+00      1.00000e+00 
869.000      0.00000e+00      1.00000e+00 
870.000      0.00000e+00      1.00000e+00 
871.000      0.00000e+00      1.00000e+00 
872.000      0.00000e+00      1.00000e+00 
873.000      0.00000e+00      1.00000e+00 
874.000      0.00000e+00      1.00000e+00 
875.000      0.00000e+00      1.00000e+00 
876.000      0.00000e+00      1.00000e+00 
877.000      0.00000e+00      1.00000e+00 
878.000      0.00000e+00      1.00000e+00 
879.000      0.00000e+00      1.00000e+00 
880.000      0.00000e+00      1.00000e+00 
881.000      0.00000e+00      1.00000e+00 
882.000      0.00000e+00      1.00000e+00 
883.000      0.00000e+00      1.00000e+00 
884.000      0.00000e+00      1.00000e+00 
885.000      0.00000e+00      1.00000e+00 
886.000      0.00000e+00      1.00000e+00 
887.000      0.00000e+00      1.00000e+00 
888.000      0.00000e+00      1.00000e+00 
889.000      0.00000e+00      1.00000e+00 
890.000      0.00000e+00      1.00000e+00 
891.000      0.00000e+00      1.00000e+00 
892.000      0.00000e+00      1.00000e+00 
893.000      0.00000e+00      1.00000e+00 
894.000      0.00000e+00      1.00000e+00 
895.000      0.00000e+00      1.00000e+00 
896.000      0.00000e+00      1.00000e+00 
897.000      0.00000e+00      1.00000e+00 
898.000      0.00000e+00      1.00000e+00 
899.000      0.00000e+00      1.00000e+00 
900.000      0.00000e+00      1.00000e+00 
901.000      0.00000e+00      1.00000e+00 
902.000      0.00000e+00      1.00000e+00 
903.000      0.00000e+00      1.00000e+00 
904.000      0.00000e+00      1.00000e+00 
905.000      0.00000e+00      1.00000e+00 
906.000      0.00000e+00      1.00000e+00 
907.000      0.00000e+00      1.00000e+00 
908.000      0.00000e+00      1.00000e+00 
909.000      0.00000e+00      1.00000e+00 
910.000      0.00000e+00      1.00000e+00 
911.000      0.00000e+00      1.00000e+00 
912.000      0.00000e+00      1.00000e+00 
913.000      0.00000e+00      1.00000e+00 
914.000      0.00000e+00      1.00000e+00 
915.000      0.00000e+00      1.00000e+00 
916.000      0.00000e+00      1.00000e+00 
917.000      0.00000e+00      1.00000e+00 
918.000      0.00000e+00      1.00000e+00 
919.000      0.00000e+00      1.00000e+00 
920.000      0.00000e+00      1.00000e+00 
921.000      0.00000e+00      1.00000e+00 
922.000      0.00000e+00      1.00000e+00 
923.000      0.00000e+00      1.00000e+00 
924.000      0.00000e+00      1.00000e+00 
925.000      0.00000e+00      1.00000e+00 
926.000      0.00000e+00      1.00000e+00 
927.000      0.00000e+00      1.00000e+00 
928.000      0.00000e+00      1.00000e+00 
929.000      0.00000e+00      1.00000e+00 
930.000      0.00000e+00      1.00000e+00 
931.000      0.00000e+00      1.00000e+00 
932.000      0.00000e+00      1.00000e+00 
933.000      0.00000e+00      1.00000e+00 
934.000      0.00000e+00      1.00000e+00 
935.000      0.00000e+00      1.00000e+00 
936.000      0.00000e+00      1.00000e+00 
937.000      0.00000e+00      1.00000e+00 
938.000      0.00000e+00      1.00000e+00 
939.000      0.00000e+00      1.00000e+00 
940.000      0.00000e+00      1.00000e+00 
941.000      0.00000e+00      1.00000e+00 
942.000      0.00000e+00      1.00000e+00 
943.000      0.00000e+00      1.00000e+00 
944.000      0.00000e+00      1.00000e+00 
945.000      0.00000e+00      1.00000e+00 
946.000      0.00000e+00      1.00000e+00 
947.000      0.00000e+00      1.00000e+00 
948.000      0.00000e+00      1.00000e+00 
949.000      0.00000e+00      1.00000e+00 
950.000      0.00000e+00      1.00000e+00 
951.000      0.00000e+00      1.00000e+00 
952.000      0.00000e+00      1.00000e+00 
953.000      0.00000e+00      1.00000e+00 
954.000      0.00000e+00      1.00000e+00 
955.000      0.00000e+00      1.00000e+00 
956.000      0.00000e+00      1.00000e+00 
957.000      0.00000e+00      1.00000e+00 
958.000      0.00000e+00      1.00000e+00 
959.000      0.00000e+00      1.00000e+00 
960.000      0.00000e+00      1.00000e+00 
961.000      0.00000e+00      1.00000e+00 
962.000      0.00000e+00      1.00000e+00 
963.000      0.00000e+00      1.00000e+00 
964.000      0.00000e+00      1.00000e+00 
965.000      0.00000e+00      1.00000e+00 
966.000      0.00000e+00      1.00000e+00 
967.000      0.00000e+00      1.00000e+00 
968.000      0.00000e+00      1.00000e+00 
969.000      0.00000e+00      1.00000e+00 
970.000      0.00000e+00      1.00000e+00 
971.000      0.00000e+00      1.00000e+00 
972.000      0.00000e+00      1.00000e+00 
973.000      0.00000e+00      1.00000e+00 
974.000      0.00000e+00      1.00000e+00 
975.000      0.00000e+00      1.00000e+00 
976.000      0.00000e+00      1.00000e+00 
977.000      0.00000e+00      1.00000e+00 
978.000      0.00000e+00      1.00000e+00 
979.000      0.00000e+00      1.00000e+00 
980.000      0.00000e+00      1.00000e+00 
981.000      0.00000e+00      1.00000e+00 
982.000      0.00000e+00      1.00000e+00 
983.000      0.00000e+00      1.00000e+00 
984.000      0.00000e+00      1.00000e+00 
985.000      0.00000e+00      1.00000e+00 
986.000      0.00000e+00      1.00000e+00 
987.000      0.00000e+00      1.00000e+00 
988.000      0.00000e+00      1.00000e+00 
989.000      0.00000e+00      1.00000e+00 
990.000      0.00000e+00      1.00000e+00 
991.000      0.00000e+00      1.00000e+00 
992.000      0.00000e+00      1.00000e+00 
993.000      0.00000e+00      1.00000e+00 
994.000      0.00000e+00      1.00000e+00 
995.000      0.00000e+00      1.00000e+00 
996.000      0.00000e+00      1.00000e+00 
997.000      0.00000e+00      1.00000e+00 
998.000      0.00000e+00      1.00000e+00 
999.000      0.00000e+00      1.00000e+00 
1000.000      0.00000e+00      1.00000e+00 
