# Gaussian folded, width=10 cm^-1
# [cm^-1] [(D/Ã…)^2 amu^-1]
0.000      1.09809e-02      9.99803e-01 
1.000      1.06806e-02      9.99808e-01 
2.000      9.82819e-03      9.99824e-01 
3.000      8.55593e-03      9.99846e-01 
4.000      7.04659e-03      9.99874e-01 
5.000      5.49045e-03      9.99901e-01 
6.000      4.04720e-03      9.99927e-01 
7.000      2.82241e-03      9.99949e-01 
8.000      1.86209e-03      9.99967e-01 
9.000      1.16225e-03      9.99979e-01 
10.000      6.86307e-04      9.99988e-01 
11.000      3.83401e-04      9.99993e-01 
12.000      2.02631e-04      9.99996e-01 
13.000      1.01315e-04      9.99998e-01 
14.000      4.79251e-05      9.99999e-01 
15.000      2.14471e-05      1.00000e+00 
16.000      9.08011e-06      1.00000e+00 
17.000      3.63690e-06      1.00000e+00 
18.000      1.37813e-06      1.00000e+00 
19.000      4.94043e-07      1.00000e+00 
20.000      1.67555e-07      1.00000e+00 
21.000      5.37612e-08      1.00000e+00 
22.000      1.63191e-08      1.00000e+00 
23.000      4.68644e-09      1.00000e+00 
24.000      1.27323e-09      1.00000e+00 
25.000      3.27256e-10      1.00000e+00 
26.000      7.95769e-11      1.00000e+00 
27.000      1.83064e-11      1.00000e+00 
28.000      3.98417e-12      1.00000e+00 
29.000      8.20331e-13      1.00000e+00 
30.000      1.59793e-13      1.00000e+00 
31.000      2.94473e-14      1.00000e+00 
32.000      5.13393e-15      1.00000e+00 
33.000      8.46782e-16      1.00000e+00 
34.000      1.32133e-16      1.00000e+00 
35.000      1.95060e-17      1.00000e+00 
36.000      2.72423e-18      1.00000e+00 
37.000      3.59945e-19      1.00000e+00 
38.000      4.49931e-20      1.00000e+00 
39.000      5.32075e-21      1.00000e+00 
40.000      5.95276e-22      1.00000e+00 
41.000      6.30059e-23      1.00000e+00 
42.000      6.30902e-24      1.00000e+00 
43.000      5.97668e-25      1.00000e+00 
44.000      5.35643e-26      1.00000e+00 
45.000      4.54160e-27      1.00000e+00 
46.000      3.64300e-28      1.00000e+00 
47.000      2.76457e-29      1.00000e+00 
48.000      1.98479e-30      1.00000e+00 
49.000      1.34809e-31      1.00000e+00 
50.000      8.66241e-33      1.00000e+00 
51.000      5.26597e-34      1.00000e+00 
52.000      3.02996e-35      1.00000e+00 
53.000      1.89994e-36      1.00000e+00 
54.000      4.34406e-36      1.00000e+00 
55.000      6.80758e-35      1.00000e+00 
56.000      1.02925e-33      1.00000e+00 
57.000      1.47228e-32      1.00000e+00 
58.000      1.99240e-31      1.00000e+00 
59.000      2.55083e-30      1.00000e+00 
60.000      3.08962e-29      1.00000e+00 
61.000      3.54035e-28      1.00000e+00 
62.000      3.83799e-27      1.00000e+00 
63.000      3.93622e-26      1.00000e+00 
64.000      3.81920e-25      1.00000e+00 
65.000      3.50577e-24      1.00000e+00 
66.000      3.04447e-23      1.00000e+00 
67.000      2.50126e-22      1.00000e+00 
68.000      1.94411e-21      1.00000e+00 
69.000      1.42956e-20      1.00000e+00 
70.000      9.94494e-20      1.00000e+00 
71.000      6.54514e-19      1.00000e+00 
72.000      4.07524e-18      1.00000e+00 
73.000      2.40052e-17      1.00000e+00 
74.000      1.33775e-16      1.00000e+00 
75.000      7.05278e-16      1.00000e+00 
76.000      3.51775e-15      1.00000e+00 
77.000      1.65992e-14      1.00000e+00 
78.000      7.41015e-14      1.00000e+00 
79.000      3.12957e-13      1.00000e+00 
80.000      1.25043e-12      1.00000e+00 
81.000      4.72663e-12      1.00000e+00 
82.000      1.69029e-11      1.00000e+00 
83.000      5.71860e-11      1.00000e+00 
84.000      1.83035e-10      1.00000e+00 
85.000      5.54240e-10      1.00000e+00 
86.000      1.58774e-09      1.00000e+00 
87.000      4.30305e-09      1.00000e+00 
88.000      1.10330e-08      1.00000e+00 
89.000      2.67624e-08      1.00000e+00 
90.000      6.14152e-08      1.00000e+00 
91.000      1.33335e-07      1.00000e+00 
92.000      2.73861e-07      1.00000e+00 
93.000      5.32151e-07      1.00000e+00 
94.000      9.78263e-07      1.00000e+00 
95.000      1.70135e-06      1.00000e+00 
96.000      2.79931e-06      1.00000e+00 
97.000      4.35738e-06      1.00000e+00 
98.000      6.41678e-06      1.00000e+00 
99.000      8.93977e-06      1.00000e+00 
100.000      1.17829e-05      1.00000e+00 
101.000      1.46926e-05      1.00000e+00 
102.000      1.73324e-05      1.00000e+00 
103.000      1.93437e-05      1.00000e+00 
104.000      2.04238e-05      1.00000e+00 
105.000      2.04010e-05      1.00000e+00 
106.000      1.92790e-05      1.00000e+00 
107.000      1.72359e-05      1.00000e+00 
108.000      1.45781e-05      1.00000e+00 
109.000      1.16651e-05      1.00000e+00 
110.000      8.83060e-06      1.00000e+00 
111.000      6.32428e-06      1.00000e+00 
112.000      4.28498e-06      1.00000e+00 
113.000      2.74666e-06      1.00000e+00 
114.000      1.66563e-06      1.00000e+00 
115.000      9.55584e-07      1.00000e+00 
116.000      5.18654e-07      1.00000e+00 
117.000      2.66320e-07      1.00000e+00 
118.000      1.29374e-07      1.00000e+00 
119.000      5.94578e-08      1.00000e+00 
120.000      2.58516e-08      1.00000e+00 
121.000      1.06337e-08      1.00000e+00 
122.000      4.13807e-09      1.00000e+00 
123.000      1.52346e-09      1.00000e+00 
124.000      5.30615e-10      1.00000e+00 
125.000      1.74842e-10      1.00000e+00 
126.000      5.45043e-11      1.00000e+00 
127.000      1.60743e-11      1.00000e+00 
128.000      4.48490e-12      1.00000e+00 
129.000      1.18383e-12      1.00000e+00 
130.000      2.95627e-13      1.00000e+00 
131.000      6.98421e-14      1.00000e+00 
132.000      1.56102e-14      1.00000e+00 
133.000      3.30077e-15      1.00000e+00 
134.000      6.60299e-16      1.00000e+00 
135.000      1.24964e-16      1.00000e+00 
136.000      2.23740e-17      1.00000e+00 
137.000      3.78985e-18      1.00000e+00 
138.000      6.07320e-19      1.00000e+00 
139.000      9.20727e-20      1.00000e+00 
140.000      1.32057e-20      1.00000e+00 
141.000      1.79189e-21      1.00000e+00 
142.000      2.30026e-22      1.00000e+00 
143.000      2.79358e-23      1.00000e+00 
144.000      3.20968e-24      1.00000e+00 
145.000      3.48884e-25      1.00000e+00 
146.000      3.58771e-26      1.00000e+00 
147.000      3.49037e-27      1.00000e+00 
148.000      3.21250e-28      1.00000e+00 
149.000      2.79726e-29      1.00000e+00 
150.000      2.30430e-30      1.00000e+00 
151.000      1.79582e-31      1.00000e+00 
152.000      1.32405e-32      1.00000e+00 
153.000      9.23561e-34      1.00000e+00 
154.000      6.09457e-35      1.00000e+00 
155.000      3.80485e-36      1.00000e+00 
156.000      2.24725e-37      1.00000e+00 
157.000      1.25568e-38      1.00000e+00 
158.000      6.63786e-40      1.00000e+00 
159.000      3.31966e-41      1.00000e+00 
160.000      1.57064e-42      1.00000e+00 
161.000      7.03035e-44      1.00000e+00 
162.000      2.97711e-45      1.00000e+00 
163.000      1.19270e-46      1.00000e+00 
164.000      4.52048e-48      1.00000e+00 
165.000      1.62090e-49      1.00000e+00 
166.000      5.49849e-51      1.00000e+00 
167.000      1.76461e-52      1.00000e+00 
168.000      5.35764e-54      1.00000e+00 
169.000      1.53892e-55      1.00000e+00 
170.000      4.18190e-57      1.00000e+00 
171.000      1.07510e-58      1.00000e+00 
172.000      2.61484e-60      1.00000e+00 
173.000      6.01667e-62      1.00000e+00 
174.000      1.30974e-63      1.00000e+00 
175.000      2.69732e-65      1.00000e+00 
176.000      5.25530e-67      1.00000e+00 
177.000      9.68678e-69      1.00000e+00 
178.000      1.68919e-70      1.00000e+00 
179.000      2.78674e-72      1.00000e+00 
180.000      4.34942e-74      1.00000e+00 
181.000      6.42220e-76      1.00000e+00 
182.000      8.97127e-78      1.00000e+00 
183.000      1.18561e-79      1.00000e+00 
184.000      1.48234e-81      1.00000e+00 
185.000      1.75336e-83      1.00000e+00 
186.000      1.96205e-85      1.00000e+00 
187.000      2.07715e-87      1.00000e+00 
188.000      2.08039e-89      1.00000e+00 
189.000      1.97123e-91      1.00000e+00 
190.000      1.76705e-93      1.00000e+00 
191.000      1.49857e-95      1.00000e+00 
192.000      1.20233e-97      1.00000e+00 
193.000     9.12614e-100      1.00000e+00 
194.000     6.55343e-102      1.00000e+00 
195.000     4.45213e-104      1.00000e+00 
196.000     2.86144e-106      1.00000e+00 
197.000     1.73988e-108      1.00000e+00 
198.000     1.00085e-110      1.00000e+00 
199.000     5.44677e-113      1.00000e+00 
200.000     2.80431e-115      1.00000e+00 
201.000     1.36594e-117      1.00000e+00 
202.000     6.29438e-120      1.00000e+00 
203.000     2.74405e-122      1.00000e+00 
204.000     1.13175e-124      1.00000e+00 
205.000     4.41596e-127      1.00000e+00 
206.000     1.63011e-129      1.00000e+00 
207.000     5.69282e-132      1.00000e+00 
208.000     1.88085e-134      1.00000e+00 
209.000     5.87896e-137      1.00000e+00 
210.000     1.73846e-139      1.00000e+00 
211.000     4.86345e-142      1.00000e+00 
212.000     1.28719e-144      1.00000e+00 
213.000     3.22298e-147      1.00000e+00 
214.000     7.63469e-150      1.00000e+00 
215.000     1.71097e-152      1.00000e+00 
216.000     3.62753e-155      1.00000e+00 
217.000     7.30463e-158      1.00000e+00 
218.000     1.68833e-157      1.00000e+00 
219.000     9.42852e-155      1.00000e+00 
220.000     4.98543e-152      1.00000e+00 
221.000     2.49391e-149      1.00000e+00 
222.000     1.18026e-146      1.00000e+00 
223.000     5.28434e-144      1.00000e+00 
224.000     2.23833e-141      1.00000e+00 
225.000     8.96963e-139      1.00000e+00 
226.000     3.40051e-136      1.00000e+00 
227.000     1.21964e-133      1.00000e+00 
228.000     4.13846e-131      1.00000e+00 
229.000     1.32851e-128      1.00000e+00 
230.000     4.03466e-126      1.00000e+00 
231.000     1.15923e-123      1.00000e+00 
232.000     3.15100e-121      1.00000e+00 
233.000     8.10302e-119      1.00000e+00 
234.000     1.97135e-116      1.00000e+00 
235.000     4.53732e-114      1.00000e+00 
236.000     9.87991e-112      1.00000e+00 
237.000     2.03529e-109      1.00000e+00 
238.000     3.96658e-107      1.00000e+00 
239.000     7.31349e-105      1.00000e+00 
240.000     1.27571e-102      1.00000e+00 
241.000     2.10522e-100      1.00000e+00 
242.000      3.28672e-98      1.00000e+00 
243.000      4.85450e-96      1.00000e+00 
244.000      6.78337e-94      1.00000e+00 
245.000      8.96737e-92      1.00000e+00 
246.000      1.12151e-89      1.00000e+00 
247.000      1.32696e-87      1.00000e+00 
248.000      1.48537e-85      1.00000e+00 
249.000      1.57299e-83      1.00000e+00 
250.000      1.57594e-81      1.00000e+00 
251.000      1.49372e-79      1.00000e+00 
252.000      1.33942e-77      1.00000e+00 
253.000      1.13627e-75      1.00000e+00 
254.000      9.11944e-74      1.00000e+00 
255.000      6.92423e-72      1.00000e+00 
256.000      4.97386e-70      1.00000e+00 
257.000      3.38013e-68      1.00000e+00 
258.000      2.17316e-66      1.00000e+00 
259.000      1.32181e-64      1.00000e+00 
260.000      7.60615e-63      1.00000e+00 
261.000      4.14075e-61      1.00000e+00 
262.000      2.13261e-59      1.00000e+00 
263.000      1.03911e-57      1.00000e+00 
264.000      4.78995e-56      1.00000e+00 
265.000      2.08891e-54      1.00000e+00 
266.000      8.61836e-53      1.00000e+00 
267.000      3.36395e-51      1.00000e+00 
268.000      1.24220e-49      1.00000e+00 
269.000      4.33963e-48      1.00000e+00 
270.000      1.43427e-46      1.00000e+00 
271.000      4.48467e-45      1.00000e+00 
272.000      1.32662e-43      1.00000e+00 
273.000      3.71263e-42      1.00000e+00 
274.000      9.82957e-41      1.00000e+00 
275.000      2.46210e-39      1.00000e+00 
276.000      5.83439e-38      1.00000e+00 
277.000      1.30799e-36      1.00000e+00 
278.000      2.77416e-35      1.00000e+00 
279.000      5.56642e-34      1.00000e+00 
280.000      1.05667e-32      1.00000e+00 
281.000      1.89767e-31      1.00000e+00 
282.000      3.22420e-30      1.00000e+00 
283.000      5.18251e-29      1.00000e+00 
284.000      7.88093e-28      1.00000e+00 
285.000      1.13379e-26      1.00000e+00 
286.000      1.54315e-25      1.00000e+00 
287.000      1.98701e-24      1.00000e+00 
288.000      2.42053e-23      1.00000e+00 
289.000      2.78958e-22      1.00000e+00 
290.000      3.04149e-21      1.00000e+00 
291.000      3.13727e-20      1.00000e+00 
292.000      3.06151e-19      1.00000e+00 
293.000      2.82643e-18      1.00000e+00 
294.000      2.46865e-17      1.00000e+00 
295.000      2.03986e-16      1.00000e+00 
296.000      1.59462e-15      1.00000e+00 
297.000      1.17932e-14      1.00000e+00 
298.000      8.25141e-14      1.00000e+00 
299.000      5.46186e-13      1.00000e+00 
300.000      3.42036e-12      1.00000e+00 
301.000      2.02639e-11      1.00000e+00 
302.000      1.13577e-10      1.00000e+00 
303.000      6.02250e-10      1.00000e+00 
304.000      3.02121e-09      1.00000e+00 
305.000      1.43385e-08      1.00000e+00 
306.000      6.43794e-08      1.00000e+00 
307.000      2.73468e-07      1.00000e+00 
308.000      1.09897e-06      1.00000e+00 
309.000      4.17813e-06      1.00000e+00 
310.000      1.50279e-05      1.00000e+00 
311.000      5.11365e-05      9.99999e-01 
312.000      1.64620e-04      9.99997e-01 
313.000      5.01364e-04      9.99991e-01 
314.000      1.44458e-03      9.99974e-01 
315.000      3.93776e-03      9.99929e-01 
316.000      1.01549e-02      9.99818e-01 
317.000      2.47753e-02      9.99555e-01 
318.000      5.71848e-02      9.98974e-01 
319.000      1.24871e-01      9.97759e-01 
320.000      2.57965e-01      9.95370e-01 
321.000      5.04171e-01      9.90952e-01 
322.000      9.32210e-01      9.83270e-01 
323.000      1.63068e+00      9.70735e-01 
324.000      2.69861e+00      9.51569e-01 
325.000      4.22505e+00      9.24174e-01 
326.000      6.25808e+00      8.87688e-01 
327.000      8.76937e+00      8.42619e-01 
328.000      1.16256e+01      7.91359e-01 
329.000      1.45807e+01      7.38324e-01 
330.000      1.73006e+01      6.89511e-01 
331.000      1.94206e+01      6.51464e-01 
332.000      2.06245e+01      6.29859e-01 
333.000      2.07215e+01      6.28118e-01 
334.000      1.96960e+01      6.46523e-01 
335.000      1.77114e+01      6.82140e-01 
336.000      1.50676e+01      7.29586e-01 
337.000      1.21271e+01      7.82359e-01 
338.000      9.23392e+00      8.34282e-01 
339.000      6.65173e+00      8.80624e-01 
340.000      4.53316e+00      9.18645e-01 
341.000      2.92271e+00      9.47547e-01 
342.000      1.78274e+00      9.68006e-01 
343.000      1.02875e+00      9.81537e-01 
344.000      5.61631e-01      9.89921e-01 
345.000      2.90074e-01      9.94794e-01 
346.000      1.41738e-01      9.97456e-01 
347.000      6.55211e-02      9.98824e-01 
348.000      2.86546e-02      9.99486e-01 
349.000      1.18557e-02      9.99787e-01 
350.000      4.64063e-03      9.99917e-01 
351.000      1.71848e-03      9.99969e-01 
352.000      6.02050e-04      9.99989e-01 
353.000      1.99544e-04      9.99996e-01 
354.000      6.25693e-05      9.99999e-01 
355.000      1.85611e-05      1.00000e+00 
356.000      5.20912e-06      1.00000e+00 
357.000      1.38307e-06      1.00000e+00 
358.000      3.47408e-07      1.00000e+00 
359.000      8.25573e-08      1.00000e+00 
360.000      1.85605e-08      1.00000e+00 
361.000      3.94768e-09      1.00000e+00 
362.000      7.94354e-10      1.00000e+00 
363.000      1.51237e-10      1.00000e+00 
364.000      2.73368e-11      1.00000e+00 
365.000      5.14537e-12      1.00000e+00 
366.000      3.09352e-12      1.00000e+00 
367.000      1.04168e-11      1.00000e+00 
368.000      4.28294e-11      1.00000e+00 
369.000      1.68314e-10      1.00000e+00 
370.000      6.25999e-10      1.00000e+00 
371.000      2.20267e-09      1.00000e+00 
372.000      7.33233e-09      1.00000e+00 
373.000      2.30915e-08      1.00000e+00 
374.000      6.87988e-08      1.00000e+00 
375.000      1.93922e-07      1.00000e+00 
376.000      5.17119e-07      1.00000e+00 
377.000      1.30458e-06      1.00000e+00 
378.000      3.11365e-06      1.00000e+00 
379.000      7.03051e-06      1.00000e+00 
380.000      1.50183e-05      1.00000e+00 
381.000      3.03509e-05      9.99999e-01 
382.000      5.80285e-05      9.99999e-01 
383.000      1.04961e-04      9.99998e-01 
384.000      1.79611e-04      9.99997e-01 
385.000      2.90773e-04      9.99995e-01 
386.000      4.45342e-04      9.99992e-01 
387.000      6.45284e-04      9.99988e-01 
388.000      8.84557e-04      9.99984e-01 
389.000      1.14714e-03      9.99979e-01 
390.000      1.40743e-03      9.99975e-01 
391.000      1.63364e-03      9.99971e-01 
392.000      1.79391e-03      9.99968e-01 
393.000      1.86365e-03      9.99967e-01 
394.000      1.83166e-03      9.99967e-01 
395.000      1.70311e-03      9.99969e-01 
396.000      1.49816e-03      9.99973e-01 
397.000      1.24678e-03      9.99978e-01 
398.000      9.81617e-04      9.99982e-01 
399.000      7.31157e-04      9.99987e-01 
400.000      5.15224e-04      9.99991e-01 
401.000      3.43479e-04      9.99994e-01 
402.000      2.16631e-04      9.99996e-01 
403.000      1.29259e-04      9.99998e-01 
404.000      7.29654e-05      9.99999e-01 
405.000      3.89664e-05      9.99999e-01 
406.000      1.96871e-05      1.00000e+00 
407.000      9.41005e-06      1.00000e+00 
408.000      4.25519e-06      1.00000e+00 
409.000      1.82038e-06      1.00000e+00 
410.000      7.36759e-07      1.00000e+00 
411.000      2.82101e-07      1.00000e+00 
412.000      1.02189e-07      1.00000e+00 
413.000      3.50201e-08      1.00000e+00 
414.000      1.13540e-08      1.00000e+00 
415.000      3.48257e-09      1.00000e+00 
416.000      1.01057e-09      1.00000e+00 
417.000      2.77430e-10      1.00000e+00 
418.000      7.20537e-11      1.00000e+00 
419.000      1.77049e-11      1.00000e+00 
420.000      4.11941e-12      1.00000e+00 
421.000      9.26134e-13      1.00000e+00 
422.000      2.93854e-13      1.00000e+00 
423.000      5.36902e-13      1.00000e+00 
424.000      2.24610e-12      1.00000e+00 
425.000      9.49138e-12      1.00000e+00 
426.000      3.80517e-11      1.00000e+00 
427.000      1.44340e-10      1.00000e+00 
428.000      5.17990e-10      1.00000e+00 
429.000      1.75862e-09      1.00000e+00 
430.000      5.64859e-09      1.00000e+00 
431.000      1.71643e-08      1.00000e+00 
432.000      4.93435e-08      1.00000e+00 
433.000      1.34200e-07      1.00000e+00 
434.000      3.45295e-07      1.00000e+00 
435.000      8.40518e-07      1.00000e+00 
436.000      1.93562e-06      1.00000e+00 
437.000      4.21709e-06      1.00000e+00 
438.000      8.69205e-06      1.00000e+00 
439.000      1.69492e-05      1.00000e+00 
440.000      3.12675e-05      9.99999e-01 
441.000      5.45702e-05      9.99999e-01 
442.000      9.01022e-05      9.99998e-01 
443.000      1.40745e-04      9.99997e-01 
444.000      2.07992e-04      9.99996e-01 
445.000      2.90790e-04      9.99995e-01 
446.000      3.84619e-04      9.99993e-01 
447.000      4.81280e-04      9.99991e-01 
448.000      5.69749e-04      9.99990e-01 
449.000      6.38096e-04      9.99989e-01 
450.000      6.76093e-04      9.99988e-01 
451.000      6.77711e-04      9.99988e-01 
452.000      6.42689e-04      9.99988e-01 
453.000      5.76599e-04      9.99990e-01 
454.000      4.89401e-04      9.99991e-01 
455.000      3.92983e-04      9.99993e-01 
456.000      2.98538e-04      9.99995e-01 
457.000      2.14557e-04      9.99996e-01 
458.000      1.45883e-04      9.99997e-01 
459.000      9.38390e-05      9.99998e-01 
460.000      5.71058e-05      9.99999e-01 
461.000      3.28771e-05      9.99999e-01 
462.000      1.79071e-05      1.00000e+00 
463.000      9.22731e-06      1.00000e+00 
464.000      4.49823e-06      1.00000e+00 
465.000      2.07456e-06      1.00000e+00 
466.000      9.05167e-07      1.00000e+00 
467.000      3.73636e-07      1.00000e+00 
468.000      1.45910e-07      1.00000e+00 
469.000      5.39064e-08      1.00000e+00 
470.000      1.88414e-08      1.00000e+00 
471.000      6.23022e-09      1.00000e+00 
472.000      1.94900e-09      1.00000e+00 
473.000      5.76815e-10      1.00000e+00 
474.000      1.61503e-10      1.00000e+00 
475.000      4.27799e-11      1.00000e+00 
476.000      1.07206e-11      1.00000e+00 
477.000      2.54164e-12      1.00000e+00 
478.000      5.70068e-13      1.00000e+00 
479.000      1.20964e-13      1.00000e+00 
480.000      2.42832e-14      1.00000e+00 
481.000      4.61182e-15      1.00000e+00 
482.000      8.28622e-16      1.00000e+00 
483.000      1.40850e-16      1.00000e+00 
484.000      2.26504e-17      1.00000e+00 
485.000      3.44598e-18      1.00000e+00 
486.000      4.95983e-19      1.00000e+00 
487.000      6.75366e-20      1.00000e+00 
488.000      8.70018e-21      1.00000e+00 
489.000      1.06032e-21      1.00000e+00 
490.000      1.22253e-22      1.00000e+00 
491.000      1.33353e-23      1.00000e+00 
492.000      1.37614e-24      1.00000e+00 
493.000      1.34357e-25      1.00000e+00 
494.000      1.24972e-26      1.00000e+00 
495.000      2.14983e-27      1.00000e+00 
496.000      1.22613e-26      1.00000e+00 
497.000      1.31544e-25      1.00000e+00 
498.000      1.34482e-24      1.00000e+00 
499.000      1.30076e-23      1.00000e+00 
500.000      1.19029e-22      1.00000e+00 
501.000      1.03044e-21      1.00000e+00 
502.000      8.43943e-21      1.00000e+00 
503.000      6.53916e-20      1.00000e+00 
504.000      4.79346e-19      1.00000e+00 
505.000      3.32426e-18      1.00000e+00 
506.000      2.18101e-17      1.00000e+00 
507.000      1.35376e-16      1.00000e+00 
508.000      7.94954e-16      1.00000e+00 
509.000      4.41633e-15      1.00000e+00 
510.000      2.32113e-14      1.00000e+00 
511.000      1.15413e-13      1.00000e+00 
512.000      5.42914e-13      1.00000e+00 
513.000      2.41615e-12      1.00000e+00 
514.000      1.01727e-11      1.00000e+00 
515.000      4.05197e-11      1.00000e+00 
516.000      1.52692e-10      1.00000e+00 
517.000      5.44355e-10      1.00000e+00 
518.000      1.83598e-09      1.00000e+00 
519.000      5.85831e-09      1.00000e+00 
520.000      1.76846e-08      1.00000e+00 
521.000      5.05052e-08      1.00000e+00 
522.000      1.36457e-07      1.00000e+00 
523.000      3.48797e-07      1.00000e+00 
524.000      8.43470e-07      1.00000e+00 
525.000      1.92968e-06      1.00000e+00 
526.000      4.17655e-06      1.00000e+00 
527.000      8.55204e-06      1.00000e+00 
528.000      1.65669e-05      1.00000e+00 
529.000      3.03619e-05      9.99999e-01 
530.000      5.26424e-05      9.99999e-01 
531.000      8.63498e-05      9.99998e-01 
532.000      1.34000e-04      9.99998e-01 
533.000      1.96729e-04      9.99996e-01 
534.000      2.73243e-04      9.99995e-01 
535.000      3.59045e-04      9.99994e-01 
536.000      4.46340e-04      9.99992e-01 
537.000      5.24931e-04      9.99991e-01 
538.000      5.84060e-04      9.99990e-01 
539.000      6.14795e-04      9.99989e-01 
540.000      6.12240e-04      9.99989e-01 
541.000      5.76809e-04      9.99990e-01 
542.000      5.14115e-04      9.99991e-01 
543.000      4.33518e-04      9.99992e-01 
544.000      3.45838e-04      9.99994e-01 
545.000      2.61010e-04      9.99995e-01 
546.000      1.86363e-04      9.99997e-01 
547.000      1.25887e-04      9.99998e-01 
548.000      8.04486e-05      9.99999e-01 
549.000      4.86381e-05      9.99999e-01 
550.000      2.78197e-05      1.00000e+00 
551.000      1.50539e-05      1.00000e+00 
552.000      7.70684e-06      1.00000e+00 
553.000      3.73354e-06      1.00000e+00 
554.000      1.71413e-06      1.00000e+00 
555.000      7.54553e-07      1.00000e+00 
556.000      3.45885e-07      1.00000e+00 
557.000      2.43326e-07      1.00000e+00 
558.000      3.98465e-07      1.00000e+00 
559.000      9.66916e-07      1.00000e+00 
560.000      2.41843e-06      1.00000e+00 
561.000      5.79084e-06      1.00000e+00 
562.000      1.31383e-05      1.00000e+00 
563.000      2.82061e-05      9.99999e-01 
564.000      5.72894e-05      9.99999e-01 
565.000      1.10084e-04      9.99998e-01 
566.000      2.00122e-04      9.99996e-01 
567.000      3.44177e-04      9.99994e-01 
568.000      5.59998e-04      9.99990e-01 
569.000      8.62004e-04      9.99985e-01 
570.000      1.25531e-03      9.99977e-01 
571.000      1.72945e-03      9.99969e-01 
572.000      2.25415e-03      9.99960e-01 
573.000      2.77956e-03      9.99950e-01 
574.000      3.24256e-03      9.99942e-01 
575.000      3.57863e-03      9.99936e-01 
576.000      3.73649e-03      9.99933e-01 
577.000      3.69086e-03      9.99934e-01 
578.000      3.44913e-03      9.99938e-01 
579.000      3.04937e-03      9.99945e-01 
580.000      2.55051e-03      9.99954e-01 
581.000      2.01820e-03      9.99964e-01 
582.000      1.51083e-03      9.99973e-01 
583.000      1.07001e-03      9.99981e-01 
584.000      7.16929e-04      9.99987e-01 
585.000      4.54446e-04      9.99992e-01 
586.000      2.72525e-04      9.99995e-01 
587.000      1.54614e-04      9.99997e-01 
588.000      8.29867e-05      9.99999e-01 
589.000      4.21392e-05      9.99999e-01 
590.000      2.02433e-05      1.00000e+00 
591.000      9.20013e-06      1.00000e+00 
592.000      3.95571e-06      1.00000e+00 
593.000      1.60906e-06      1.00000e+00 
594.000      6.19212e-07      1.00000e+00 
595.000      2.25436e-07      1.00000e+00 
596.000      7.76471e-08      1.00000e+00 
597.000      2.53014e-08      1.00000e+00 
598.000      7.79977e-09      1.00000e+00 
599.000      2.27477e-09      1.00000e+00 
600.000      6.27688e-10      1.00000e+00 
601.000      1.64174e-10      1.00000e+00 
602.000      4.26897e-11      1.00000e+00 
603.000      2.32403e-11      1.00000e+00 
604.000      8.26978e-11      1.00000e+00 
605.000      4.46297e-10      1.00000e+00 
606.000      2.33330e-09      1.00000e+00 
607.000      1.15519e-08      1.00000e+00 
608.000      5.41112e-08      1.00000e+00 
609.000      2.39808e-07      1.00000e+00 
610.000      1.00549e-06      1.00000e+00 
611.000      3.98873e-06      1.00000e+00 
612.000      1.49703e-05      1.00000e+00 
613.000      5.31577e-05      9.99999e-01 
614.000      1.78584e-04      9.99997e-01 
615.000      5.67622e-04      9.99990e-01 
616.000      1.70693e-03      9.99969e-01 
617.000      4.85640e-03      9.99913e-01 
618.000      1.30723e-02      9.99765e-01 
619.000      3.32914e-02      9.99403e-01 
620.000      8.02145e-02      9.98560e-01 
621.000      1.82858e-01      9.96718e-01 
622.000      3.94381e-01      9.92922e-01 
623.000      8.04747e-01      9.85557e-01 
624.000      1.55362e+00      9.72118e-01 
625.000      2.83772e+00      9.49072e-01 
626.000      4.90385e+00      9.11992e-01 
627.000      8.01762e+00      8.56110e-01 
628.000      1.24021e+01      7.77423e-01 
629.000      1.81505e+01      6.74259e-01 
630.000      2.51317e+01      5.48970e-01 
631.000      3.29228e+01      4.09145e-01 
632.000      4.08050e+01      2.67686e-01 
633.000      4.78489e+01      1.41270e-01 
634.000      5.30851e+01      4.72977e-02 
635.000      5.57206e+01      0.00000e+00 
636.000      5.53351e+01      6.91863e-03 
637.000      5.19909e+01      6.69353e-02 
638.000      4.62164e+01      1.70568e-01 
639.000      3.88694e+01      3.02423e-01 
640.000      3.09287e+01      4.44932e-01 
641.000      2.32840e+01      5.82129e-01 
642.000      1.65842e+01      7.02368e-01 
643.000      1.11757e+01      7.99432e-01 
644.000      7.12524e+00      8.72126e-01 
645.000      4.29799e+00      9.22865e-01 
646.000      2.45286e+00      9.55979e-01 
647.000      1.32442e+00      9.76231e-01 
648.000      6.76578e-01      9.87858e-01 
649.000      3.27004e-01      9.94131e-01 
650.000      1.49531e-01      9.97316e-01 
651.000      6.46925e-02      9.98839e-01 
652.000      2.64800e-02      9.99525e-01 
653.000      1.02547e-02      9.99816e-01 
654.000      3.75728e-03      9.99933e-01 
655.000      1.30247e-03      9.99977e-01 
656.000      4.27171e-04      9.99992e-01 
657.000      1.32550e-04      9.99998e-01 
658.000      3.89135e-05      9.99999e-01 
659.000      1.08085e-05      1.00000e+00 
660.000      2.84034e-06      1.00000e+00 
661.000      7.06187e-07      1.00000e+00 
662.000      1.66116e-07      1.00000e+00 
663.000      3.69697e-08      1.00000e+00 
664.000      7.78438e-09      1.00000e+00 
665.000      1.55076e-09      1.00000e+00 
666.000      2.92286e-10      1.00000e+00 
667.000      5.21212e-11      1.00000e+00 
668.000      8.79353e-12      1.00000e+00 
669.000      1.40364e-12      1.00000e+00 
670.000      2.11977e-13      1.00000e+00 
671.000      3.02877e-14      1.00000e+00 
672.000      4.09436e-15      1.00000e+00 
673.000      5.23659e-16      1.00000e+00 
674.000      6.33656e-17      1.00000e+00 
675.000      7.25440e-18      1.00000e+00 
676.000      7.85764e-19      1.00000e+00 
677.000      8.05239e-20      1.00000e+00 
678.000      7.80729e-21      1.00000e+00 
679.000      7.16173e-22      1.00000e+00 
680.000      6.21553e-23      1.00000e+00 
681.000      5.10365e-24      1.00000e+00 
682.000      3.96485e-25      1.00000e+00 
683.000      2.91416e-26      1.00000e+00 
684.000      2.02648e-27      1.00000e+00 
685.000      1.33326e-28      1.00000e+00 
686.000      8.30368e-30      1.00000e+00 
687.000      5.56110e-31      1.00000e+00 
688.000      9.55264e-31      1.00000e+00 
689.000      1.20970e-29      1.00000e+00 
690.000      1.49145e-28      1.00000e+00 
691.000      1.73984e-27      1.00000e+00 
692.000      1.92012e-26      1.00000e+00 
693.000      2.00478e-25      1.00000e+00 
694.000      1.98026e-24      1.00000e+00 
695.000      1.85053e-23      1.00000e+00 
696.000      1.63602e-22      1.00000e+00 
697.000      1.36836e-21      1.00000e+00 
698.000      1.08276e-20      1.00000e+00 
699.000      8.10548e-20      1.00000e+00 
700.000      5.74044e-19      1.00000e+00 
701.000      3.84619e-18      1.00000e+00 
702.000      2.43800e-17      1.00000e+00 
703.000      1.46203e-16      1.00000e+00 
704.000      8.29463e-16      1.00000e+00 
705.000      4.45201e-15      1.00000e+00 
706.000      2.26065e-14      1.00000e+00 
707.000      1.08600e-13      1.00000e+00 
708.000      4.93564e-13      1.00000e+00 
709.000      2.12215e-12      1.00000e+00 
710.000      8.63233e-12      1.00000e+00 
711.000      3.32199e-11      1.00000e+00 
712.000      1.20944e-10      1.00000e+00 
713.000      4.16575e-10      1.00000e+00 
714.000      1.35743e-09      1.00000e+00 
715.000      4.18467e-09      1.00000e+00 
716.000      1.22046e-08      1.00000e+00 
717.000      3.36747e-08      1.00000e+00 
718.000      8.79029e-08      1.00000e+00 
719.000      2.17080e-07      1.00000e+00 
720.000      5.07174e-07      1.00000e+00 
721.000      1.12101e-06      1.00000e+00 
722.000      2.34414e-06      1.00000e+00 
723.000      4.63741e-06      1.00000e+00 
724.000      8.67931e-06      1.00000e+00 
725.000      1.53679e-05      1.00000e+00 
726.000      2.57431e-05      1.00000e+00 
727.000      4.07968e-05      9.99999e-01 
728.000      6.11659e-05      9.99999e-01 
729.000      8.67584e-05      9.99998e-01 
730.000      1.16421e-04      9.99998e-01 
731.000      1.47799e-04      9.99997e-01 
732.000      1.77513e-04      9.99997e-01 
733.000      2.01700e-04      9.99996e-01 
734.000      2.16820e-04      9.99996e-01 
735.000      2.20502e-04      9.99996e-01 
736.000      2.12151e-04      9.99996e-01 
737.000      1.93105e-04      9.99997e-01 
738.000      1.66289e-04      9.99997e-01 
739.000      1.35472e-04      9.99998e-01 
740.000      1.04413e-04      9.99998e-01 
741.000      7.61341e-05      9.99999e-01 
742.000      5.25196e-05      9.99999e-01 
743.000      3.42754e-05      9.99999e-01 
744.000      2.11623e-05      1.00000e+00 
745.000      1.23612e-05      1.00000e+00 
746.000      6.83087e-06      1.00000e+00 
747.000      3.57117e-06      1.00000e+00 
748.000      1.76630e-06      1.00000e+00 
749.000      8.26487e-07      1.00000e+00 
750.000      3.65869e-07      1.00000e+00 
751.000      1.53227e-07      1.00000e+00 
752.000      6.07103e-08      1.00000e+00 
753.000      2.27566e-08      1.00000e+00 
754.000      8.06997e-09      1.00000e+00 
755.000      2.70741e-09      1.00000e+00 
756.000      8.59322e-10      1.00000e+00 
757.000      2.58033e-10      1.00000e+00 
758.000      7.33016e-11      1.00000e+00 
759.000      1.97002e-11      1.00000e+00 
760.000      5.00893e-12      1.00000e+00 
761.000      1.20487e-12      1.00000e+00 
762.000      2.74189e-13      1.00000e+00 
763.000      5.90312e-14      1.00000e+00 
764.000      1.20235e-14      1.00000e+00 
765.000      2.31685e-15      1.00000e+00 
766.000      4.22361e-16      1.00000e+00 
767.000      7.28431e-17      1.00000e+00 
768.000      1.18853e-17      1.00000e+00 
769.000      1.83465e-18      1.00000e+00 
770.000      2.67925e-19      1.00000e+00 
771.000      3.70161e-20      1.00000e+00 
772.000      4.83825e-21      1.00000e+00 
773.000      5.98279e-22      1.00000e+00 
774.000      6.99902e-23      1.00000e+00 
775.000      7.74622e-24      1.00000e+00 
776.000      8.11074e-25      1.00000e+00 
777.000      8.03434e-26      1.00000e+00 
778.000      7.52946e-27      1.00000e+00 
779.000      6.69020e-28      1.00000e+00 
780.000      7.57456e-29      1.00000e+00 
781.000      2.55678e-28      1.00000e+00 
782.000      3.02334e-27      1.00000e+00 
783.000      3.44127e-26      1.00000e+00 
784.000      3.70608e-25      1.00000e+00 
785.000      3.77599e-24      1.00000e+00 
786.000      3.63969e-23      1.00000e+00 
787.000      3.31907e-22      1.00000e+00 
788.000      2.86343e-21      1.00000e+00 
789.000      2.33709e-20      1.00000e+00 
790.000      1.80461e-19      1.00000e+00 
791.000      1.31828e-18      1.00000e+00 
792.000      9.11070e-18      1.00000e+00 
793.000      5.95681e-17      1.00000e+00 
794.000      3.68463e-16      1.00000e+00 
795.000      2.15622e-15      1.00000e+00 
796.000      1.19374e-14      1.00000e+00 
797.000      6.25239e-14      1.00000e+00 
798.000      3.09813e-13      1.00000e+00 
799.000      1.45235e-12      1.00000e+00 
800.000      6.44114e-12      1.00000e+00 
801.000      2.70254e-11      1.00000e+00 
802.000      1.07275e-10      1.00000e+00 
803.000      4.02851e-10      1.00000e+00 
804.000      1.43123e-09      1.00000e+00 
805.000      4.81051e-09      1.00000e+00 
806.000      1.52965e-08      1.00000e+00 
807.000      4.60163e-08      1.00000e+00 
808.000      1.30963e-07      1.00000e+00 
809.000      3.52618e-07      1.00000e+00 
810.000      8.98213e-07      1.00000e+00 
811.000      2.16457e-06      1.00000e+00 
812.000      4.93495e-06      1.00000e+00 
813.000      1.06442e-05      1.00000e+00 
814.000      2.17200e-05      1.00000e+00 
815.000      4.19301e-05      9.99999e-01 
816.000      7.65792e-05      9.99999e-01 
817.000      1.32316e-04      9.99998e-01 
818.000      2.16289e-04      9.99996e-01 
819.000      3.34484e-04      9.99994e-01 
820.000      4.89365e-04      9.99991e-01 
821.000      6.77344e-04      9.99988e-01 
822.000      8.86961e-04      9.99984e-01 
823.000      1.09880e-03      9.99980e-01 
824.000      1.28780e-03      9.99977e-01 
825.000      1.42791e-03      9.99974e-01 
826.000      1.49785e-03      9.99973e-01 
827.000      1.48646e-03      9.99973e-01 
828.000      1.39560e-03      9.99975e-01 
829.000      1.23961e-03      9.99978e-01 
830.000      1.04166e-03      9.99981e-01 
831.000      8.28106e-04      9.99985e-01 
832.000      6.22823e-04      9.99989e-01 
833.000      4.43161e-04      9.99992e-01 
834.000      2.98317e-04      9.99995e-01 
835.000      1.89982e-04      9.99997e-01 
836.000      1.14463e-04      9.99998e-01 
837.000      6.52431e-05      9.99999e-01 
838.000      3.51823e-05      9.99999e-01 
839.000      1.79487e-05      1.00000e+00 
840.000      8.66279e-06      1.00000e+00 
841.000      3.95551e-06      1.00000e+00 
842.000      1.70870e-06      1.00000e+00 
843.000      6.98307e-07      1.00000e+00 
844.000      2.69989e-07      1.00000e+00 
845.000      9.87562e-08      1.00000e+00 
846.000      3.41744e-08      1.00000e+00 
847.000      1.11881e-08      1.00000e+00 
848.000      3.46521e-09      1.00000e+00 
849.000      1.01536e-09      1.00000e+00 
850.000      2.81470e-10      1.00000e+00 
851.000      7.38176e-11      1.00000e+00 
852.000      1.83150e-11      1.00000e+00 
853.000      4.29905e-12      1.00000e+00 
854.000      9.54677e-13      1.00000e+00 
855.000      2.00567e-13      1.00000e+00 
856.000      3.98639e-14      1.00000e+00 
857.000      7.49582e-15      1.00000e+00 
858.000      1.33345e-15      1.00000e+00 
859.000      2.24415e-16      1.00000e+00 
860.000      3.57312e-17      1.00000e+00 
861.000      5.38220e-18      1.00000e+00 
862.000      7.66993e-19      1.00000e+00 
863.000      1.03405e-19      1.00000e+00 
864.000      1.31889e-20      1.00000e+00 
865.000      1.59146e-21      1.00000e+00 
866.000      1.81678e-22      1.00000e+00 
867.000      1.96212e-23      1.00000e+00 
868.000      2.00478e-24      1.00000e+00 
869.000      1.93788e-25      1.00000e+00 
870.000      1.77218e-26      1.00000e+00 
871.000      1.53322e-27      1.00000e+00 
872.000      1.25493e-28      1.00000e+00 
873.000      9.71750e-30      1.00000e+00 
874.000      7.11974e-31      1.00000e+00 
875.000      5.08141e-32      1.00000e+00 
876.000      2.52160e-32      1.00000e+00 
877.000      3.09792e-31      1.00000e+00 
878.000      4.12523e-30      1.00000e+00 
879.000      5.20022e-29      1.00000e+00 
880.000      6.20176e-28      1.00000e+00 
881.000      6.99722e-27      1.00000e+00 
882.000      7.46885e-26      1.00000e+00 
883.000      7.54222e-25      1.00000e+00 
884.000      7.20547e-24      1.00000e+00 
885.000      6.51244e-23      1.00000e+00 
886.000      5.56855e-22      1.00000e+00 
887.000      4.50462e-21      1.00000e+00 
888.000      3.44740e-20      1.00000e+00 
889.000      2.49599e-19      1.00000e+00 
890.000      1.70967e-18      1.00000e+00 
891.000      1.10789e-17      1.00000e+00 
892.000      6.79208e-17      1.00000e+00 
893.000      3.93935e-16      1.00000e+00 
894.000      2.16154e-15      1.00000e+00 
895.000      1.12207e-14      1.00000e+00 
896.000      5.51055e-14      1.00000e+00 
897.000      2.56028e-13      1.00000e+00 
898.000      1.12537e-12      1.00000e+00 
899.000      4.67977e-12      1.00000e+00 
900.000      1.84106e-11      1.00000e+00 
901.000      6.85222e-11      1.00000e+00 
902.000      2.41275e-10      1.00000e+00 
903.000      8.03729e-10      1.00000e+00 
904.000      2.53294e-09      1.00000e+00 
905.000      7.55193e-09      1.00000e+00 
906.000      2.13014e-08      1.00000e+00 
907.000      5.68429e-08      1.00000e+00 
908.000      1.43503e-07      1.00000e+00 
909.000      3.42740e-07      1.00000e+00 
910.000      7.74437e-07      1.00000e+00 
911.000      1.65548e-06      1.00000e+00 
912.000      3.34796e-06      1.00000e+00 
913.000      6.40552e-06      1.00000e+00 
914.000      1.15943e-05      1.00000e+00 
915.000      1.98543e-05      1.00000e+00 
916.000      3.21648e-05      9.99999e-01 
917.000      4.92976e-05      9.99999e-01 
918.000      7.14804e-05      9.99999e-01 
919.000      9.80543e-05      9.99998e-01 
920.000      1.27252e-04      9.99998e-01 
921.000      1.56235e-04      9.99997e-01 
922.000      1.81472e-04      9.99997e-01 
923.000      1.99416e-04      9.99996e-01 
924.000      2.07313e-04      9.99996e-01 
925.000      2.03898e-04      9.99996e-01 
926.000      1.89721e-04      9.99997e-01 
927.000      1.67007e-04      9.99997e-01 
928.000      1.39082e-04      9.99998e-01 
929.000      1.09579e-04      9.99998e-01 
930.000      8.16772e-05      9.99999e-01 
931.000      5.75958e-05      9.99999e-01 
932.000      3.84237e-05      9.99999e-01 
933.000      2.42507e-05      1.00000e+00 
934.000      1.44800e-05      1.00000e+00 
935.000      8.17955e-06      1.00000e+00 
936.000      4.37127e-06      1.00000e+00 
937.000      2.21006e-06      1.00000e+00 
938.000      1.05710e-06      1.00000e+00 
939.000      4.78353e-07      1.00000e+00 
940.000      2.04785e-07      1.00000e+00 
941.000      8.29401e-08      1.00000e+00 
942.000      3.17796e-08      1.00000e+00 
943.000      1.15199e-08      1.00000e+00 
944.000      3.95066e-09      1.00000e+00 
945.000      1.28176e-09      1.00000e+00 
946.000      3.93424e-10      1.00000e+00 
947.000      1.14244e-10      1.00000e+00 
948.000      3.13851e-11      1.00000e+00 
949.000      8.15700e-12      1.00000e+00 
950.000      2.00565e-12      1.00000e+00 
951.000      4.66549e-13      1.00000e+00 
952.000      1.02673e-13      1.00000e+00 
953.000      2.13764e-14      1.00000e+00 
954.000      4.21047e-15      1.00000e+00 
955.000      7.84592e-16      1.00000e+00 
956.000      1.38317e-16      1.00000e+00 
957.000      2.30687e-17      1.00000e+00 
958.000      3.63989e-18      1.00000e+00 
959.000      5.43340e-19      1.00000e+00 
960.000      7.67313e-20      1.00000e+00 
961.000      1.02516e-20      1.00000e+00 
962.000      1.29577e-21      1.00000e+00 
963.000      1.54946e-22      1.00000e+00 
964.000      1.75288e-23      1.00000e+00 
965.000      1.87604e-24      1.00000e+00 
966.000      1.89954e-25      1.00000e+00 
967.000      1.81958e-26      1.00000e+00 
968.000      1.64897e-27      1.00000e+00 
969.000      1.41375e-28      1.00000e+00 
970.000      1.14670e-29      1.00000e+00 
971.000      8.79922e-31      1.00000e+00 
972.000      6.38788e-32      1.00000e+00 
973.000      4.38719e-33      1.00000e+00 
974.000      2.85058e-34      1.00000e+00 
975.000      1.75226e-35      1.00000e+00 
976.000      1.01902e-36      1.00000e+00 
977.000      5.60636e-38      1.00000e+00 
978.000      2.91809e-39      1.00000e+00 
979.000      1.43693e-40      1.00000e+00 
980.000      6.69402e-42      1.00000e+00 
981.000      2.95024e-43      1.00000e+00 
982.000      1.23012e-44      1.00000e+00 
983.000      4.85234e-46      1.00000e+00 
984.000      1.81082e-47      1.00000e+00 
985.000      6.39317e-49      1.00000e+00 
986.000      2.13538e-50      1.00000e+00 
987.000      6.74762e-52      1.00000e+00 
988.000      2.01718e-53      1.00000e+00 
989.000      5.70500e-55      1.00000e+00 
990.000      1.52646e-56      1.00000e+00 
991.000      3.86395e-58      1.00000e+00 
992.000      9.25327e-60      1.00000e+00 
993.000      2.09641e-61      1.00000e+00 
994.000      4.49341e-63      1.00000e+00 
995.000      9.11157e-65      1.00000e+00 
996.000      1.74795e-66      1.00000e+00 
997.000      3.17234e-68      1.00000e+00 
998.000      5.44690e-70      1.00000e+00 
999.000      8.84784e-72      1.00000e+00 
1000.000      1.35970e-73      1.00000e+00 
